11,    channel 11 SRF extracted from SRF_FY4B_AGRI.zip (FY4B_AGRI_SRF_CH11_Pub.txt)
Number of data points:
2157
Wavenumber (cm-1)   Filter response
     1250.000000       0.000600
     1250.078100       0.000700
     1250.156300       0.000700
     1250.234400       0.000700
     1250.312600       0.000700
     1250.390700       0.000700
     1250.468900       0.000700
     1250.547100       0.000700
     1250.625300       0.000700
     1250.703500       0.000700
     1250.781700       0.000700
     1250.860000       0.000700
     1250.938200       0.000700
     1251.016500       0.000700
     1251.094700       0.000700
     1251.173000       0.000700
     1251.251300       0.000700
     1251.329500       0.000700
     1251.407800       0.000700
     1251.486100       0.000700
     1251.564500       0.000700
     1251.642800       0.000700
     1251.721100       0.000700
     1251.799500       0.000700
     1251.877800       0.000700
     1251.956200       0.000700
     1252.034600       0.000700
     1252.112900       0.000700
     1252.191300       0.000700
     1252.269700       0.000700
     1252.348200       0.000800
     1252.426600       0.000800
     1252.505000       0.000800
     1252.583500       0.000800
     1252.661900       0.000800
     1252.740400       0.000800
     1252.818800       0.000800
     1252.897300       0.000800
     1252.975800       0.000800
     1253.054300       0.000800
     1253.132800       0.000800
     1253.211400       0.000800
     1253.289900       0.000800
     1253.368400       0.000800
     1253.447000       0.000800
     1253.525500       0.000800
     1253.604100       0.000800
     1253.682700       0.000800
     1253.761300       0.000800
     1253.839900       0.000800
     1253.918500       0.000800
     1253.997100       0.000900
     1254.075700       0.000900
     1254.154400       0.000900
     1254.233000       0.000900
     1254.311700       0.000900
     1254.390400       0.000900
     1254.469000       0.000900
     1254.547700       0.000900
     1254.626400       0.000900
     1254.705100       0.000900
     1254.783900       0.000900
     1254.862600       0.000900
     1254.941300       0.000900
     1255.020100       0.001000
     1255.098800       0.001000
     1255.177600       0.001000
     1255.256400       0.001000
     1255.335200       0.001000
     1255.414000       0.001000
     1255.492800       0.001000
     1255.571600       0.001000
     1255.650400       0.001000
     1255.729300       0.001000
     1255.808100       0.001000
     1255.887000       0.001000
     1255.965800       0.001100
     1256.044700       0.001100
     1256.123600       0.001100
     1256.202500       0.001100
     1256.281400       0.001100
     1256.360300       0.001100
     1256.439300       0.001100
     1256.518200       0.001100
     1256.597100       0.001100
     1256.676100       0.001100
     1256.755100       0.001100
     1256.834000       0.001100
     1256.913000       0.001200
     1256.992000       0.001200
     1257.071000       0.001200
     1257.150000       0.001200
     1257.229100       0.001200
     1257.308100       0.001200
     1257.387100       0.001200
     1257.466200       0.001200
     1257.545300       0.001200
     1257.624300       0.001200
     1257.703400       0.001200
     1257.782500       0.001200
     1257.861600       0.001200
     1257.940800       0.001200
     1258.019900       0.001300
     1258.099000       0.001300
     1258.178200       0.001300
     1258.257300       0.001300
     1258.336500       0.001300
     1258.415700       0.001300
     1258.494800       0.001300
     1258.574000       0.001300
     1258.653200       0.001300
     1258.732500       0.001300
     1258.811700       0.001300
     1258.890900       0.001300
     1258.970200       0.001300
     1259.049400       0.001300
     1259.128700       0.001300
     1259.208000       0.001400
     1259.287200       0.001400
     1259.366500       0.001400
     1259.445800       0.001400
     1259.525200       0.001400
     1259.604500       0.001400
     1259.683800       0.001400
     1259.763200       0.001400
     1259.842500       0.001400
     1259.921900       0.001400
     1260.001300       0.001400
     1260.080600       0.001400
     1260.160000       0.001400
     1260.239400       0.001400
     1260.318900       0.001500
     1260.398300       0.001500
     1260.477700       0.001500
     1260.557200       0.001500
     1260.636600       0.001500
     1260.716100       0.001500
     1260.795600       0.001500
     1260.875000       0.001500
     1260.954500       0.001500
     1261.034000       0.001500
     1261.113600       0.001600
     1261.193100       0.001600
     1261.272600       0.001600
     1261.352200       0.001600
     1261.431700       0.001600
     1261.511300       0.001600
     1261.590900       0.001600
     1261.670500       0.001600
     1261.750000       0.001700
     1261.829700       0.001700
     1261.909300       0.001700
     1261.988900       0.001700
     1262.068500       0.001700
     1262.148200       0.001700
     1262.227800       0.001700
     1262.307500       0.001800
     1262.387200       0.001800
     1262.466900       0.001800
     1262.546600       0.001800
     1262.626300       0.001800
     1262.706000       0.001800
     1262.785700       0.001900
     1262.865400       0.001900
     1262.945200       0.001900
     1263.024900       0.001900
     1263.104700       0.001900
     1263.184500       0.001900
     1263.264300       0.002000
     1263.344100       0.002000
     1263.423900       0.002000
     1263.503700       0.002000
     1263.583500       0.002000
     1263.663400       0.002000
     1263.743200       0.002100
     1263.823100       0.002100
     1263.902900       0.002100
     1263.982800       0.002100
     1264.062700       0.002100
     1264.142600       0.002200
     1264.222500       0.002200
     1264.302400       0.002200
     1264.382300       0.002200
     1264.462300       0.002200
     1264.542200       0.002200
     1264.622200       0.002300
     1264.702200       0.002300
     1264.782100       0.002300
     1264.862100       0.002300
     1264.942100       0.002300
     1265.022100       0.002300
     1265.102200       0.002400
     1265.182200       0.002400
     1265.262200       0.002400
     1265.342300       0.002400
     1265.422300       0.002400
     1265.502400       0.002400
     1265.582500       0.002500
     1265.662600       0.002500
     1265.742700       0.002500
     1265.822800       0.002500
     1265.902900       0.002500
     1265.983000       0.002500
     1266.063200       0.002600
     1266.143300       0.002600
     1266.223500       0.002600
     1266.303700       0.002600
     1266.383800       0.002600
     1266.464000       0.002600
     1266.544200       0.002700
     1266.624400       0.002700
     1266.704700       0.002700
     1266.784900       0.002700
     1266.865100       0.002700
     1266.945400       0.002700
     1267.025700       0.002800
     1267.105900       0.002800
     1267.186200       0.002800
     1267.266500       0.002800
     1267.346800       0.002800
     1267.427100       0.002900
     1267.507400       0.002900
     1267.587800       0.002900
     1267.668100       0.002900
     1267.748500       0.002900
     1267.828800       0.003000
     1267.909200       0.003000
     1267.989600       0.003000
     1268.070000       0.003000
     1268.150400       0.003000
     1268.230800       0.003100
     1268.311200       0.003100
     1268.391700       0.003100
     1268.472100       0.003100
     1268.552600       0.003100
     1268.633000       0.003200
     1268.713500       0.003200
     1268.794000       0.003200
     1268.874500       0.003200
     1268.955000       0.003300
     1269.035500       0.003300
     1269.116100       0.003300
     1269.196600       0.003400
     1269.277100       0.003400
     1269.357700       0.003400
     1269.438300       0.003400
     1269.518900       0.003500
     1269.599400       0.003500
     1269.680000       0.003500
     1269.760700       0.003600
     1269.841300       0.003600
     1269.921900       0.003600
     1270.002500       0.003600
     1270.083200       0.003700
     1270.163900       0.003700
     1270.244500       0.003700
     1270.325200       0.003800
     1270.405900       0.003800
     1270.486600       0.003800
     1270.567300       0.003900
     1270.648000       0.003900
     1270.728800       0.004000
     1270.809500       0.004000
     1270.890300       0.004000
     1270.971000       0.004100
     1271.051800       0.004100
     1271.132600       0.004100
     1271.213400       0.004200
     1271.294200       0.004200
     1271.375000       0.004200
     1271.455800       0.004300
     1271.536700       0.004300
     1271.617500       0.004400
     1271.698400       0.004400
     1271.779200       0.004400
     1271.860100       0.004500
     1271.941000       0.004500
     1272.021900       0.004500
     1272.102800       0.004600
     1272.183700       0.004600
     1272.264600       0.004700
     1272.345600       0.004700
     1272.426500       0.004700
     1272.507500       0.004800
     1272.588400       0.004800
     1272.669400       0.004900
     1272.750400       0.004900
     1272.831400       0.004900
     1272.912400       0.005000
     1272.993400       0.005000
     1273.074500       0.005000
     1273.155500       0.005100
     1273.236600       0.005100
     1273.317600       0.005200
     1273.398700       0.005200
     1273.479800       0.005200
     1273.560900       0.005300
     1273.642000       0.005300
     1273.723100       0.005400
     1273.804200       0.005400
     1273.885400       0.005400
     1273.966500       0.005500
     1274.047600       0.005500
     1274.128800       0.005600
     1274.210000       0.005600
     1274.291200       0.005600
     1274.372400       0.005700
     1274.453600       0.005700
     1274.534800       0.005800
     1274.616000       0.005800
     1274.697300       0.005800
     1274.778500       0.005900
     1274.859800       0.005900
     1274.941000       0.006000
     1275.022300       0.006000
     1275.103600       0.006100
     1275.184900       0.006100
     1275.266200       0.006200
     1275.347500       0.006200
     1275.428900       0.006300
     1275.510200       0.006300
     1275.591600       0.006300
     1275.672900       0.006400
     1275.754300       0.006400
     1275.835700       0.006500
     1275.917100       0.006500
     1275.998500       0.006600
     1276.079900       0.006700
     1276.161300       0.006700
     1276.242700       0.006800
     1276.324200       0.006800
     1276.405600       0.006900
     1276.487100       0.006900
     1276.568600       0.007000
     1276.650100       0.007000
     1276.731600       0.007100
     1276.813100       0.007200
     1276.894600       0.007200
     1276.976100       0.007300
     1277.057700       0.007400
     1277.139200       0.007400
     1277.220800       0.007500
     1277.302300       0.007500
     1277.383900       0.007600
     1277.465500       0.007700
     1277.547100       0.007700
     1277.628700       0.007800
     1277.710300       0.007900
     1277.792000       0.008000
     1277.873600       0.008000
     1277.955300       0.008100
     1278.036900       0.008200
     1278.118600       0.008200
     1278.200300       0.008300
     1278.282000       0.008400
     1278.363700       0.008500
     1278.445400       0.008600
     1278.527100       0.008600
     1278.608900       0.008700
     1278.690600       0.008800
     1278.772400       0.008900
     1278.854100       0.008900
     1278.935900       0.009000
     1279.017700       0.009100
     1279.099500       0.009200
     1279.181300       0.009300
     1279.263100       0.009400
     1279.345000       0.009400
     1279.426800       0.009500
     1279.508700       0.009600
     1279.590500       0.009700
     1279.672400       0.009800
     1279.754300       0.009900
     1279.836200       0.010000
     1279.918100       0.010100
     1280.000000       0.010100
     1280.081900       0.010200
     1280.163900       0.010300
     1280.245800       0.010400
     1280.327800       0.010500
     1280.409700       0.010600
     1280.491700       0.010700
     1280.573700       0.010800
     1280.655700       0.010900
     1280.737700       0.011000
     1280.819700       0.011100
     1280.901800       0.011200
     1280.983800       0.011300
     1281.065800       0.011400
     1281.147900       0.011500
     1281.230000       0.011600
     1281.312100       0.011700
     1281.394200       0.011800
     1281.476300       0.011900
     1281.558400       0.012000
     1281.640500       0.012100
     1281.722600       0.012200
     1281.804800       0.012300
     1281.886900       0.012400
     1281.969100       0.012500
     1282.051300       0.012600
     1282.133500       0.012700
     1282.215700       0.012800
     1282.297900       0.012900
     1282.380100       0.013100
     1282.462300       0.013200
     1282.544600       0.013300
     1282.626800       0.013400
     1282.709100       0.013500
     1282.791400       0.013600
     1282.873600       0.013800
     1282.955900       0.013900
     1283.038200       0.014000
     1283.120500       0.014100
     1283.202900       0.014300
     1283.285200       0.014400
     1283.367600       0.014500
     1283.449900       0.014700
     1283.532300       0.014800
     1283.614700       0.014900
     1283.697000       0.015100
     1283.779400       0.015200
     1283.861900       0.015400
     1283.944300       0.015500
     1284.026700       0.015600
     1284.109100       0.015800
     1284.191600       0.015900
     1284.274100       0.016100
     1284.356500       0.016300
     1284.439000       0.016400
     1284.521500       0.016600
     1284.604000       0.016700
     1284.686500       0.016900
     1284.769100       0.017100
     1284.851600       0.017200
     1284.934100       0.017400
     1285.016700       0.017600
     1285.099300       0.017800
     1285.181900       0.017900
     1285.264400       0.018100
     1285.347000       0.018300
     1285.429700       0.018500
     1285.512300       0.018700
     1285.594900       0.018900
     1285.677600       0.019000
     1285.760200       0.019200
     1285.842900       0.019400
     1285.925500       0.019600
     1286.008200       0.019800
     1286.090900       0.020000
     1286.173600       0.020200
     1286.256400       0.020400
     1286.339100       0.020700
     1286.421800       0.020900
     1286.504600       0.021100
     1286.587300       0.021300
     1286.670100       0.021500
     1286.752900       0.021700
     1286.835700       0.022000
     1286.918500       0.022200
     1287.001300       0.022400
     1287.084100       0.022600
     1287.166900       0.022900
     1287.249800       0.023100
     1287.332600       0.023400
     1287.415500       0.023600
     1287.498400       0.023800
     1287.581300       0.024100
     1287.664200       0.024300
     1287.747100       0.024600
     1287.830000       0.024800
     1287.912900       0.025100
     1287.995900       0.025300
     1288.078800       0.025600
     1288.161800       0.025900
     1288.244800       0.026100
     1288.327800       0.026400
     1288.410700       0.026700
     1288.493800       0.026900
     1288.576800       0.027200
     1288.659800       0.027500
     1288.742800       0.027800
     1288.825900       0.028000
     1288.908900       0.028300
     1288.992000       0.028600
     1289.075100       0.028900
     1289.158200       0.029200
     1289.241300       0.029500
     1289.324400       0.029800
     1289.407500       0.030100
     1289.490700       0.030400
     1289.573800       0.030700
     1289.657000       0.031000
     1289.740100       0.031400
     1289.823300       0.031700
     1289.906500       0.032000
     1289.989700       0.032300
     1290.072900       0.032700
     1290.156100       0.033000
     1290.239300       0.033400
     1290.322600       0.033700
     1290.405800       0.034000
     1290.489100       0.034400
     1290.572400       0.034800
     1290.655700       0.035100
     1290.738900       0.035500
     1290.822300       0.035900
     1290.905600       0.036200
     1290.988900       0.036600
     1291.072200       0.037000
     1291.155600       0.037400
     1291.238900       0.037800
     1291.322300       0.038200
     1291.405700       0.038600
     1291.489100       0.039000
     1291.572500       0.039400
     1291.655900       0.039800
     1291.739300       0.040300
     1291.822800       0.040700
     1291.906200       0.041100
     1291.989700       0.041600
     1292.073100       0.042000
     1292.156600       0.042500
     1292.240100       0.043000
     1292.323600       0.043400
     1292.407100       0.043900
     1292.490600       0.044400
     1292.574200       0.044900
     1292.657700       0.045300
     1292.741300       0.045800
     1292.824800       0.046300
     1292.908400       0.046900
     1292.992000       0.047400
     1293.075600       0.047900
     1293.159200       0.048400
     1293.242800       0.049000
     1293.326400       0.049500
     1293.410100       0.050100
     1293.493700       0.050600
     1293.577400       0.051200
     1293.661100       0.051700
     1293.744700       0.052300
     1293.828400       0.052900
     1293.912100       0.053500
     1293.995900       0.054100
     1294.079600       0.054700
     1294.163300       0.055300
     1294.247100       0.055900
     1294.330800       0.056600
     1294.414600       0.057200
     1294.498400       0.057900
     1294.582200       0.058500
     1294.666000       0.059200
     1294.749800       0.059800
     1294.833600       0.060500
     1294.917400       0.061200
     1295.001300       0.061900
     1295.085200       0.062600
     1295.169000       0.063300
     1295.252900       0.064000
     1295.336800       0.064800
     1295.420700       0.065500
     1295.504600       0.066300
     1295.588500       0.067000
     1295.672500       0.067800
     1295.756400       0.068500
     1295.840400       0.069300
     1295.924300       0.070100
     1296.008300       0.070900
     1296.092300       0.071700
     1296.176300       0.072500
     1296.260300       0.073400
     1296.344300       0.074200
     1296.428300       0.075100
     1296.512400       0.075900
     1296.596400       0.076800
     1296.680500       0.077700
     1296.764600       0.078600
     1296.848700       0.079500
     1296.932800       0.080400
     1297.016900       0.081300
     1297.101000       0.082200
     1297.185100       0.083200
     1297.269200       0.084200
     1297.353400       0.085100
     1297.437600       0.086100
     1297.521700       0.087100
     1297.605900       0.088100
     1297.690100       0.089200
     1297.774300       0.090200
     1297.858500       0.091300
     1297.942800       0.092300
     1298.027000       0.093400
     1298.111200       0.094500
     1298.195500       0.095600
     1298.279800       0.096700
     1298.364100       0.097900
     1298.448400       0.099000
     1298.532700       0.100200
     1298.617000       0.101400
     1298.701300       0.102600
     1298.785600       0.103800
     1298.870000       0.105100
     1298.954300       0.106300
     1299.038700       0.107600
     1299.123100       0.108900
     1299.207500       0.110200
     1299.291900       0.111500
     1299.376300       0.112800
     1299.460700       0.114200
     1299.545200       0.115500
     1299.629600       0.116900
     1299.714100       0.118300
     1299.798500       0.119800
     1299.883000       0.121200
     1299.967500       0.122700
     1300.052000       0.124100
     1300.136500       0.125600
     1300.221000       0.127200
     1300.305600       0.128700
     1300.390100       0.130300
     1300.474700       0.131800
     1300.559200       0.133400
     1300.643800       0.135100
     1300.728400       0.136700
     1300.813000       0.138400
     1300.897600       0.140000
     1300.982200       0.141700
     1301.066900       0.143500
     1301.151500       0.145200
     1301.236200       0.147000
     1301.320800       0.148800
     1301.405500       0.150600
     1301.490200       0.152400
     1301.574900       0.154200
     1301.659600       0.156100
     1301.744300       0.158000
     1301.829100       0.159900
     1301.913800       0.161900
     1301.998600       0.163800
     1302.083300       0.165800
     1302.168100       0.167800
     1302.252900       0.169900
     1302.337700       0.171900
     1302.422500       0.174000
     1302.507300       0.176100
     1302.592200       0.178200
     1302.677000       0.180400
     1302.761900       0.182600
     1302.846700       0.184800
     1302.931600       0.187000
     1303.016500       0.189200
     1303.101400       0.191500
     1303.186300       0.193800
     1303.271200       0.196100
     1303.356100       0.198500
     1303.441100       0.200900
     1303.526000       0.203300
     1303.611000       0.205700
     1303.696000       0.208200
     1303.781000       0.210600
     1303.866000       0.213200
     1303.951000       0.215700
     1304.036000       0.218300
     1304.121000       0.220900
     1304.206100       0.223500
     1304.291100       0.226100
     1304.376200       0.228800
     1304.461300       0.231500
     1304.546300       0.234300
     1304.631400       0.237000
     1304.716600       0.239800
     1304.801700       0.242600
     1304.886800       0.245500
     1304.971900       0.248300
     1305.057100       0.251200
     1305.142300       0.254200
     1305.227400       0.257100
     1305.312600       0.260100
     1305.397800       0.263100
     1305.483000       0.266200
     1305.568200       0.269300
     1305.653500       0.272400
     1305.738700       0.275500
     1305.824000       0.278700
     1305.909200       0.281800
     1305.994500       0.285100
     1306.079800       0.288300
     1306.165100       0.291600
     1306.250400       0.294900
     1306.335700       0.298300
     1306.421100       0.301600
     1306.506400       0.305000
     1306.591800       0.308500
     1306.677100       0.311900
     1306.762500       0.315400
     1306.847900       0.318900
     1306.933300       0.322500
     1307.018700       0.326100
     1307.104100       0.329700
     1307.189500       0.333300
     1307.275000       0.337000
     1307.360400       0.340700
     1307.445900       0.344400
     1307.531400       0.348200
     1307.616900       0.352000
     1307.702400       0.355800
     1307.787900       0.359600
     1307.873400       0.363500
     1307.958900       0.367400
     1308.044500       0.371300
     1308.130000       0.375300
     1308.215600       0.379300
     1308.301200       0.383300
     1308.386800       0.387300
     1308.472400       0.391400
     1308.558000       0.395500
     1308.643600       0.399600
     1308.729200       0.403700
     1308.814900       0.407900
     1308.900500       0.412100
     1308.986200       0.416300
     1309.071900       0.420500
     1309.157600       0.424700
     1309.243300       0.429000
     1309.329000       0.433300
     1309.414700       0.437600
     1309.500400       0.441900
     1309.586200       0.446200
     1309.671900       0.450600
     1309.757700       0.454900
     1309.843500       0.459300
     1309.929300       0.463700
     1310.015100       0.468100
     1310.100900       0.472500
     1310.186700       0.477000
     1310.272500       0.481400
     1310.358400       0.485900
     1310.444200       0.490400
     1310.530100       0.494900
     1310.616000       0.499400
     1310.701900       0.503900
     1310.787800       0.508400
     1310.873700       0.512900
     1310.959600       0.517400
     1311.045600       0.522000
     1311.131500       0.526500
     1311.217500       0.531100
     1311.303400       0.535700
     1311.389400       0.540300
     1311.475400       0.544800
     1311.561400       0.549400
     1311.647400       0.554000
     1311.733500       0.558600
     1311.819500       0.563200
     1311.905500       0.567800
     1311.991600       0.572400
     1312.077700       0.577000
     1312.163800       0.581600
     1312.249900       0.586200
     1312.336000       0.590800
     1312.422100       0.595400
     1312.508200       0.600000
     1312.594300       0.604600
     1312.680500       0.609100
     1312.766700       0.613700
     1312.852800       0.618300
     1312.939000       0.622800
     1313.025200       0.627400
     1313.111400       0.631900
     1313.197600       0.636400
     1313.283900       0.641000
     1313.370100       0.645500
     1313.456400       0.650000
     1313.542600       0.654500
     1313.628900       0.658900
     1313.715200       0.663400
     1313.801500       0.667800
     1313.887800       0.672200
     1313.974100       0.676600
     1314.060400       0.681000
     1314.146800       0.685400
     1314.233100       0.689700
     1314.319500       0.694000
     1314.405900       0.698300
     1314.492300       0.702600
     1314.578700       0.706900
     1314.665100       0.711100
     1314.751500       0.715300
     1314.837900       0.719500
     1314.924400       0.723700
     1315.010800       0.727800
     1315.097300       0.731900
     1315.183800       0.736000
     1315.270300       0.740000
     1315.356800       0.744000
     1315.443300       0.748000
     1315.529800       0.751900
     1315.616400       0.755900
     1315.702900       0.759700
     1315.789500       0.763600
     1315.876000       0.767400
     1315.962600       0.771200
     1316.049200       0.775000
     1316.135800       0.778700
     1316.222400       0.782400
     1316.309100       0.786000
     1316.395700       0.789600
     1316.482400       0.793200
     1316.569000       0.796700
     1316.655700       0.800200
     1316.742400       0.803700
     1316.829100       0.807100
     1316.915800       0.810500
     1317.002500       0.813800
     1317.089200       0.817100
     1317.176000       0.820400
     1317.262700       0.823600
     1317.349500       0.826800
     1317.436300       0.829900
     1317.523100       0.833000
     1317.609900       0.836100
     1317.696700       0.839100
     1317.783500       0.842100
     1317.870300       0.845000
     1317.957200       0.847800
     1318.044000       0.850700
     1318.130900       0.853500
     1318.217800       0.856200
     1318.304700       0.858900
     1318.391600       0.861500
     1318.478500       0.864100
     1318.565400       0.866700
     1318.652300       0.869100
     1318.739300       0.871600
     1318.826200       0.874000
     1318.913200       0.876300
     1319.000200       0.878600
     1319.087200       0.880800
     1319.174200       0.883000
     1319.261200       0.885100
     1319.348200       0.887200
     1319.435300       0.889300
     1319.522300       0.891200
     1319.609400       0.893200
     1319.696500       0.895000
     1319.783600       0.896900
     1319.870700       0.898700
     1319.957800       0.900400
     1320.044900       0.902100
     1320.132000       0.903800
     1320.219200       0.905400
     1320.306300       0.906900
     1320.393500       0.908500
     1320.480700       0.909900
     1320.567800       0.911400
     1320.655000       0.912800
     1320.742300       0.914200
     1320.829500       0.915500
     1320.916700       0.916800
     1321.004000       0.918000
     1321.091200       0.919300
     1321.178500       0.920400
     1321.265800       0.921600
     1321.353100       0.922700
     1321.440400       0.923800
     1321.527700       0.924900
     1321.615000       0.925900
     1321.702400       0.926900
     1321.789700       0.927900
     1321.877100       0.928800
     1321.964400       0.929700
     1322.051800       0.930600
     1322.139200       0.931500
     1322.226600       0.932300
     1322.314000       0.933200
     1322.401500       0.934000
     1322.488900       0.934700
     1322.576400       0.935500
     1322.663800       0.936200
     1322.751300       0.936900
     1322.838800       0.937600
     1322.926300       0.938300
     1323.013800       0.939000
     1323.101300       0.939600
     1323.188900       0.940300
     1323.276400       0.940900
     1323.364000       0.941500
     1323.451600       0.942100
     1323.539100       0.942700
     1323.626700       0.943300
     1323.714300       0.943800
     1323.802000       0.944400
     1323.889600       0.944900
     1323.977200       0.945400
     1324.064900       0.945900
     1324.152500       0.946400
     1324.240200       0.946900
     1324.327900       0.947300
     1324.415600       0.947800
     1324.503300       0.948300
     1324.591000       0.948700
     1324.678800       0.949100
     1324.766500       0.949500
     1324.854300       0.950000
     1324.942000       0.950400
     1325.029800       0.950800
     1325.117600       0.951200
     1325.205400       0.951500
     1325.293200       0.951900
     1325.381000       0.952300
     1325.468900       0.952600
     1325.556700       0.953000
     1325.644600       0.953300
     1325.732500       0.953700
     1325.820400       0.954000
     1325.908200       0.954400
     1325.996200       0.954700
     1326.084100       0.955000
     1326.172000       0.955300
     1326.259900       0.955700
     1326.347900       0.956000
     1326.435900       0.956300
     1326.523800       0.956600
     1326.611800       0.956900
     1326.699800       0.957200
     1326.787800       0.957500
     1326.875900       0.957800
     1326.963900       0.958100
     1327.052000       0.958400
     1327.140000       0.958700
     1327.228100       0.959000
     1327.316200       0.959300
     1327.404300       0.959600
     1327.492400       0.959900
     1327.580500       0.960200
     1327.668600       0.960500
     1327.756800       0.960800
     1327.844900       0.961100
     1327.933100       0.961400
     1328.021200       0.961700
     1328.109400       0.962000
     1328.197600       0.962300
     1328.285800       0.962600
     1328.374100       0.962900
     1328.462300       0.963200
     1328.550600       0.963500
     1328.638800       0.963800
     1328.727100       0.964100
     1328.815400       0.964400
     1328.903700       0.964700
     1328.992000       0.965000
     1329.080300       0.965300
     1329.168600       0.965600
     1329.256900       0.965900
     1329.345300       0.966200
     1329.433700       0.966500
     1329.522000       0.966700
     1329.610400       0.967000
     1329.698800       0.967300
     1329.787200       0.967600
     1329.875700       0.967900
     1329.964100       0.968200
     1330.052500       0.968500
     1330.141000       0.968800
     1330.229500       0.969100
     1330.317900       0.969400
     1330.406400       0.969700
     1330.494900       0.970000
     1330.583500       0.970300
     1330.672000       0.970600
     1330.760500       0.970900
     1330.849100       0.971200
     1330.937600       0.971500
     1331.026200       0.971800
     1331.114800       0.972100
     1331.203400       0.972400
     1331.292000       0.972700
     1331.380600       0.973000
     1331.469300       0.973400
     1331.557900       0.973700
     1331.646600       0.974000
     1331.735300       0.974300
     1331.823900       0.974600
     1331.912600       0.974900
     1332.001300       0.975200
     1332.090000       0.975600
     1332.178800       0.975900
     1332.267500       0.976200
     1332.356300       0.976500
     1332.445000       0.976800
     1332.533800       0.977200
     1332.622600       0.977500
     1332.711400       0.977800
     1332.800200       0.978200
     1332.889000       0.978500
     1332.977900       0.978800
     1333.066700       0.979200
     1333.155600       0.979500
     1333.244500       0.979900
     1333.333300       0.980200
     1333.422200       0.980600
     1333.511100       0.980900
     1333.600100       0.981300
     1333.689000       0.981700
     1333.777900       0.982000
     1333.866900       0.982400
     1333.955800       0.982800
     1334.044800       0.983200
     1334.133800       0.983500
     1334.222800       0.983900
     1334.311800       0.984300
     1334.400900       0.984700
     1334.489900       0.985100
     1334.578900       0.985500
     1334.668000       0.985900
     1334.757100       0.986300
     1334.846200       0.986700
     1334.935300       0.987100
     1335.024400       0.987500
     1335.113500       0.987900
     1335.202600       0.988300
     1335.291800       0.988700
     1335.380900       0.989100
     1335.470100       0.989500
     1335.559300       0.989900
     1335.648500       0.990300
     1335.737700       0.990700
     1335.826900       0.991100
     1335.916100       0.991500
     1336.005300       0.991900
     1336.094600       0.992300
     1336.183900       0.992700
     1336.273100       0.993100
     1336.362400       0.993500
     1336.451700       0.993800
     1336.541000       0.994200
     1336.630400       0.994600
     1336.719700       0.994900
     1336.809000       0.995200
     1336.898400       0.995600
     1336.987800       0.995900
     1337.077100       0.996200
     1337.166500       0.996500
     1337.256000       0.996800
     1337.345400       0.997100
     1337.434800       0.997400
     1337.524200       0.997600
     1337.613700       0.997900
     1337.703200       0.998100
     1337.792600       0.998300
     1337.882100       0.998600
     1337.971600       0.998800
     1338.061100       0.999000
     1338.150700       0.999100
     1338.240200       0.999300
     1338.329800       0.999400
     1338.419300       0.999600
     1338.508900       0.999700
     1338.598500       0.999800
     1338.688100       0.999800
     1338.777700       0.999900
     1338.867300       0.999900
     1338.957000       1.000000
     1339.046600       1.000000
     1339.136300       1.000000
     1339.225900       1.000000
     1339.315600       1.000000
     1339.405300       0.999900
     1339.495000       0.999900
     1339.584700       0.999800
     1339.674500       0.999700
     1339.764200       0.999700
     1339.854000       0.999600
     1339.943700       0.999400
     1340.033500       0.999300
     1340.123300       0.999200
     1340.213100       0.999100
     1340.302900       0.998900
     1340.392700       0.998800
     1340.482600       0.998600
     1340.572400       0.998400
     1340.662300       0.998200
     1340.752200       0.998000
     1340.842000       0.997800
     1340.931900       0.997600
     1341.021900       0.997400
     1341.111800       0.997200
     1341.201700       0.996900
     1341.291700       0.996700
     1341.381600       0.996500
     1341.471600       0.996200
     1341.561600       0.995900
     1341.651600       0.995700
     1341.741600       0.995400
     1341.831600       0.995100
     1341.921600       0.994800
     1342.011700       0.994600
     1342.101700       0.994300
     1342.191800       0.994000
     1342.281900       0.993700
     1342.372000       0.993400
     1342.462100       0.993100
     1342.552200       0.992800
     1342.642300       0.992400
     1342.732500       0.992100
     1342.822600       0.991800
     1342.912800       0.991500
     1343.003000       0.991200
     1343.093100       0.990900
     1343.183300       0.990500
     1343.273600       0.990200
     1343.363800       0.989900
     1343.454000       0.989600
     1343.544300       0.989200
     1343.634500       0.988900
     1343.724800       0.988600
     1343.815100       0.988300
     1343.905400       0.987900
     1343.995700       0.987600
     1344.086000       0.987300
     1344.176400       0.987000
     1344.266700       0.986600
     1344.357100       0.986300
     1344.447400       0.986000
     1344.537800       0.985600
     1344.628200       0.985300
     1344.718600       0.985000
     1344.809000       0.984700
     1344.899500       0.984400
     1344.989900       0.984000
     1345.080400       0.983700
     1345.170800       0.983400
     1345.261300       0.983100
     1345.351800       0.982800
     1345.442300       0.982500
     1345.532800       0.982200
     1345.623400       0.981900
     1345.713900       0.981700
     1345.804500       0.981400
     1345.895000       0.981100
     1345.985600       0.980800
     1346.076200       0.980600
     1346.166800       0.980300
     1346.257400       0.980100
     1346.348000       0.979800
     1346.438700       0.979600
     1346.529300       0.979300
     1346.620000       0.979100
     1346.710700       0.978900
     1346.801300       0.978700
     1346.892000       0.978400
     1346.982800       0.978200
     1347.073500       0.978000
     1347.164200       0.977800
     1347.255000       0.977600
     1347.345700       0.977400
     1347.436500       0.977200
     1347.527300       0.977000
     1347.618100       0.976800
     1347.708900       0.976600
     1347.799700       0.976400
     1347.890600       0.976300
     1347.981400       0.976100
     1348.072300       0.975900
     1348.163100       0.975700
     1348.254000       0.975500
     1348.344900       0.975400
     1348.435800       0.975200
     1348.526700       0.975000
     1348.617700       0.974800
     1348.708600       0.974700
     1348.799600       0.974500
     1348.890500       0.974300
     1348.981500       0.974100
     1349.072500       0.973900
     1349.163500       0.973800
     1349.254500       0.973600
     1349.345600       0.973400
     1349.436600       0.973200
     1349.527700       0.973000
     1349.618700       0.972900
     1349.709800       0.972700
     1349.800900       0.972500
     1349.892000       0.972300
     1349.983100       0.972100
     1350.074300       0.971900
     1350.165400       0.971700
     1350.256500       0.971500
     1350.347700       0.971200
     1350.438900       0.971000
     1350.530100       0.970800
     1350.621300       0.970600
     1350.712500       0.970400
     1350.803700       0.970200
     1350.895000       0.969900
     1350.986200       0.969700
     1351.077500       0.969500
     1351.168800       0.969300
     1351.260000       0.969100
     1351.351400       0.968900
     1351.442700       0.968600
     1351.534000       0.968400
     1351.625300       0.968200
     1351.716700       0.968000
     1351.808000       0.967800
     1351.899400       0.967600
     1351.990800       0.967400
     1352.082200       0.967200
     1352.173600       0.967000
     1352.265000       0.966900
     1352.356500       0.966700
     1352.447900       0.966500
     1352.539400       0.966300
     1352.630900       0.966200
     1352.722400       0.966000
     1352.813900       0.965900
     1352.905400       0.965700
     1352.996900       0.965600
     1353.088400       0.965500
     1353.180000       0.965300
     1353.271500       0.965200
     1353.363100       0.965100
     1353.454700       0.965000
     1353.546300       0.965000
     1353.637900       0.964900
     1353.729500       0.964800
     1353.821200       0.964800
     1353.912800       0.964800
     1354.004500       0.964700
     1354.096100       0.964700
     1354.187800       0.964700
     1354.279500       0.964800
     1354.371200       0.964800
     1354.463000       0.964800
     1354.554700       0.964900
     1354.646400       0.964900
     1354.738200       0.965000
     1354.830000       0.965100
     1354.921800       0.965200
     1355.013600       0.965300
     1355.105400       0.965400
     1355.197200       0.965600
     1355.289000       0.965700
     1355.380900       0.965900
     1355.472700       0.966000
     1355.564600       0.966200
     1355.656500       0.966400
     1355.748400       0.966600
     1355.840300       0.966800
     1355.932200       0.967100
     1356.024100       0.967300
     1356.116100       0.967600
     1356.208000       0.967900
     1356.300000       0.968200
     1356.392000       0.968500
     1356.484000       0.968800
     1356.576000       0.969100
     1356.668000       0.969400
     1356.760100       0.969800
     1356.852100       0.970100
     1356.944200       0.970500
     1357.036200       0.970900
     1357.128300       0.971300
     1357.220400       0.971700
     1357.312500       0.972200
     1357.404600       0.972600
     1357.496800       0.973100
     1357.588900       0.973500
     1357.681100       0.974000
     1357.773300       0.974500
     1357.865400       0.975000
     1357.957600       0.975500
     1358.049800       0.976100
     1358.142100       0.976600
     1358.234300       0.977100
     1358.326500       0.977700
     1358.418800       0.978200
     1358.511100       0.978800
     1358.603400       0.979400
     1358.695700       0.979900
     1358.788000       0.980500
     1358.880300       0.981100
     1358.972600       0.981600
     1359.065000       0.982200
     1359.157300       0.982800
     1359.249700       0.983300
     1359.342100       0.983900
     1359.434500       0.984400
     1359.526900       0.985000
     1359.619300       0.985500
     1359.711700       0.986000
     1359.804200       0.986600
     1359.896600       0.987100
     1359.989100       0.987600
     1360.081600       0.988000
     1360.174100       0.988500
     1360.266600       0.988900
     1360.359100       0.989400
     1360.451700       0.989800
     1360.544200       0.990200
     1360.636800       0.990600
     1360.729400       0.990900
     1360.821900       0.991300
     1360.914500       0.991600
     1361.007100       0.991900
     1361.099800       0.992100
     1361.192400       0.992400
     1361.285100       0.992600
     1361.377700       0.992700
     1361.470400       0.992900
     1361.563100       0.993000
     1361.655800       0.993100
     1361.748500       0.993200
     1361.841200       0.993200
     1361.933900       0.993200
     1362.026700       0.993100
     1362.119500       0.993100
     1362.212200       0.993000
     1362.305000       0.992900
     1362.397800       0.992700
     1362.490600       0.992500
     1362.583500       0.992300
     1362.676300       0.992000
     1362.769100       0.991700
     1362.862000       0.991400
     1362.954900       0.991100
     1363.047800       0.990700
     1363.140700       0.990300
     1363.233600       0.989800
     1363.326500       0.989300
     1363.419500       0.988800
     1363.512400       0.988300
     1363.605400       0.987700
     1363.698300       0.987100
     1363.791300       0.986400
     1363.884300       0.985700
     1363.977400       0.985000
     1364.070400       0.984300
     1364.163400       0.983500
     1364.256500       0.982700
     1364.349500       0.981800
     1364.442600       0.980900
     1364.535700       0.980000
     1364.628800       0.979100
     1364.721900       0.978100
     1364.815100       0.977100
     1364.908200       0.976000
     1365.001400       0.974900
     1365.094500       0.973800
     1365.187700       0.972700
     1365.280900       0.971500
     1365.374100       0.970300
     1365.467300       0.969000
     1365.560600       0.967700
     1365.653800       0.966400
     1365.747100       0.965000
     1365.840300       0.963700
     1365.933600       0.962200
     1366.026900       0.960800
     1366.120200       0.959300
     1366.213500       0.957800
     1366.306900       0.956200
     1366.400200       0.954600
     1366.493600       0.953000
     1366.586900       0.951300
     1366.680300       0.949600
     1366.773700       0.947900
     1366.867100       0.946100
     1366.960600       0.944300
     1367.054000       0.942400
     1367.147400       0.940600
     1367.240900       0.938600
     1367.334400       0.936700
     1367.427900       0.934700
     1367.521400       0.932700
     1367.614900       0.930600
     1367.708400       0.928500
     1367.801900       0.926400
     1367.895500       0.924300
     1367.989100       0.922100
     1368.082600       0.919800
     1368.176200       0.917600
     1368.269800       0.915200
     1368.363400       0.912900
     1368.457100       0.910500
     1368.550700       0.908100
     1368.644400       0.905700
     1368.738000       0.903200
     1368.831700       0.900600
     1368.925400       0.898100
     1369.019100       0.895500
     1369.112800       0.892800
     1369.206500       0.890200
     1369.300300       0.887500
     1369.394000       0.884700
     1369.487800       0.881900
     1369.581600       0.879100
     1369.675400       0.876200
     1369.769200       0.873300
     1369.863000       0.870400
     1369.956800       0.867400
     1370.050700       0.864400
     1370.144600       0.861300
     1370.238400       0.858200
     1370.332300       0.855000
     1370.426200       0.851800
     1370.520100       0.848600
     1370.614000       0.845300
     1370.708000       0.841900
     1370.801900       0.838600
     1370.895900       0.835100
     1370.989900       0.831700
     1371.083800       0.828100
     1371.177800       0.824600
     1371.271900       0.820900
     1371.365900       0.817300
     1371.459900       0.813500
     1371.554000       0.809700
     1371.648000       0.805900
     1371.742100       0.802000
     1371.836200       0.798100
     1371.930300       0.794100
     1372.024400       0.790100
     1372.118600       0.786000
     1372.212700       0.781800
     1372.306800       0.777600
     1372.401000       0.773300
     1372.495200       0.769000
     1372.589400       0.764600
     1372.683600       0.760200
     1372.777800       0.755700
     1372.872000       0.751100
     1372.966300       0.746500
     1373.060600       0.741800
     1373.154800       0.737000
     1373.249100       0.732200
     1373.343400       0.727400
     1373.437700       0.722400
     1373.532000       0.717500
     1373.626400       0.712400
     1373.720700       0.707300
     1373.815100       0.702200
     1373.909500       0.697000
     1374.003800       0.691800
     1374.098200       0.686600
     1374.192700       0.681300
     1374.287100       0.675900
     1374.381500       0.670600
     1374.476000       0.665200
     1374.570400       0.659800
     1374.664900       0.654300
     1374.759400       0.648900
     1374.853900       0.643400
     1374.948400       0.637900
     1375.043000       0.632400
     1375.137500       0.626800
     1375.232100       0.621300
     1375.326600       0.615700
     1375.421200       0.610200
     1375.515800       0.604600
     1375.610400       0.599000
     1375.705000       0.593500
     1375.799700       0.587900
     1375.894300       0.582300
     1375.989000       0.576800
     1376.083700       0.571200
     1376.178400       0.565700
     1376.273100       0.560200
     1376.367800       0.554700
     1376.462500       0.549200
     1376.557200       0.543800
     1376.652000       0.538400
     1376.746700       0.533000
     1376.841500       0.527600
     1376.936300       0.522300
     1377.031100       0.517000
     1377.125900       0.511700
     1377.220800       0.506500
     1377.315600       0.501300
     1377.410500       0.496100
     1377.505300       0.491000
     1377.600200       0.485900
     1377.695100       0.480800
     1377.790000       0.475800
     1377.884900       0.470900
     1377.979900       0.465900
     1378.074800       0.461000
     1378.169800       0.456100
     1378.264800       0.451300
     1378.359800       0.446500
     1378.454800       0.441700
     1378.549800       0.437000
     1378.644800       0.432300
     1378.739800       0.427700
     1378.834900       0.423000
     1378.930000       0.418500
     1379.025000       0.413900
     1379.120100       0.409400
     1379.215200       0.404900
     1379.310300       0.400500
     1379.405500       0.396100
     1379.500600       0.391800
     1379.595800       0.387500
     1379.690900       0.383200
     1379.786100       0.378900
     1379.881300       0.374700
     1379.976500       0.370600
     1380.071800       0.366400
     1380.167000       0.362300
     1380.262200       0.358300
     1380.357500       0.354300
     1380.452800       0.350300
     1380.548100       0.346300
     1380.643400       0.342400
     1380.738700       0.338600
     1380.834000       0.334700
     1380.929400       0.331000
     1381.024700       0.327200
     1381.120100       0.323500
     1381.215500       0.319800
     1381.310900       0.316200
     1381.406300       0.312600
     1381.501700       0.309000
     1381.597100       0.305500
     1381.692600       0.302000
     1381.788000       0.298500
     1381.883500       0.295100
     1381.979000       0.291700
     1382.074500       0.288300
     1382.170000       0.285000
     1382.265500       0.281700
     1382.361100       0.278400
     1382.456600       0.275200
     1382.552200       0.272000
     1382.647800       0.268800
     1382.743400       0.265700
     1382.839000       0.262500
     1382.934600       0.259500
     1383.030200       0.256400
     1383.125900       0.253400
     1383.221500       0.250400
     1383.317200       0.247400
     1383.412900       0.244500
     1383.508600       0.241500
     1383.604300       0.238700
     1383.700000       0.235800
     1383.795800       0.233000
     1383.891500       0.230100
     1383.987300       0.227400
     1384.083000       0.224600
     1384.178800       0.221800
     1384.274600       0.219100
     1384.370500       0.216400
     1384.466300       0.213800
     1384.562100       0.211100
     1384.658000       0.208500
     1384.753900       0.205900
     1384.849700       0.203300
     1384.945600       0.200700
     1385.041600       0.198200
     1385.137500       0.195700
     1385.233400       0.193200
     1385.329400       0.190700
     1385.425300       0.188300
     1385.521300       0.185800
     1385.617300       0.183400
     1385.713300       0.181000
     1385.809300       0.178700
     1385.905300       0.176400
     1386.001400       0.174100
     1386.097400       0.171800
     1386.193500       0.169500
     1386.289600       0.167300
     1386.385700       0.165100
     1386.481800       0.162900
     1386.577900       0.160800
     1386.674100       0.158600
     1386.770200       0.156500
     1386.866400       0.154500
     1386.962600       0.152400
     1387.058700       0.150400
     1387.154900       0.148400
     1387.251200       0.146500
     1387.347400       0.144500
     1387.443600       0.142600
     1387.539900       0.140700
     1387.636200       0.138900
     1387.732400       0.137100
     1387.828700       0.135300
     1387.925100       0.133500
     1388.021400       0.131800
     1388.117700       0.130100
     1388.214100       0.128400
     1388.310400       0.126800
     1388.406800       0.125200
     1388.503200       0.123600
     1388.599600       0.122100
     1388.696000       0.120600
     1388.792400       0.119100
     1388.888900       0.117700
     1388.985300       0.116200
     1389.081800       0.114800
     1389.178300       0.113500
     1389.274800       0.112100
     1389.371300       0.110800
     1389.467800       0.109600
     1389.564400       0.108300
     1389.660900       0.107100
     1389.757500       0.105900
     1389.854100       0.104700
     1389.950700       0.103500
     1390.047300       0.102400
     1390.143900       0.101300
     1390.240500       0.100200
     1390.337200       0.099100
     1390.433800       0.098000
     1390.530500       0.097000
     1390.627200       0.096000
     1390.723900       0.095000
     1390.820600       0.094000
     1390.917300       0.093100
     1391.014000       0.092100
     1391.110800       0.091200
     1391.207600       0.090300
     1391.304300       0.089400
     1391.401100       0.088500
     1391.497900       0.087600
     1391.594800       0.086700
     1391.691600       0.085900
     1391.788400       0.085000
     1391.885300       0.084200
     1391.982200       0.083400
     1392.079100       0.082600
     1392.176000       0.081800
     1392.272900       0.081000
     1392.369800       0.080200
     1392.466800       0.079400
     1392.563700       0.078700
     1392.660700       0.077900
     1392.757700       0.077200
     1392.854700       0.076400
     1392.951700       0.075700
     1393.048700       0.074900
     1393.145700       0.074200
     1393.242800       0.073500
     1393.339800       0.072800
     1393.436900       0.072000
     1393.534000       0.071300
     1393.631100       0.070600
     1393.728200       0.069900
     1393.825400       0.069300
     1393.922500       0.068600
     1394.019700       0.067900
     1394.116800       0.067200
     1394.214000       0.066600
     1394.311200       0.065900
     1394.408400       0.065300
     1394.505600       0.064600
     1394.602900       0.064000
     1394.700100       0.063300
     1394.797400       0.062700
     1394.894700       0.062100
     1394.992000       0.061400
     1395.089300       0.060800
     1395.186600       0.060200
     1395.283900       0.059600
     1395.381300       0.059000
     1395.478600       0.058400
     1395.576000       0.057800
     1395.673400       0.057200
     1395.770800       0.056700
     1395.868200       0.056100
     1395.965700       0.055500
     1396.063100       0.054900
     1396.160600       0.054400
     1396.258000       0.053800
     1396.355500       0.053300
     1396.453000       0.052700
     1396.550500       0.052200
     1396.648000       0.051600
     1396.745600       0.051100
     1396.843100       0.050500
     1396.940700       0.050000
     1397.038300       0.049500
     1397.135900       0.049000
     1397.233500       0.048400
     1397.331100       0.047900
     1397.428700       0.047400
     1397.526400       0.046900
     1397.624000       0.046400
     1397.721700       0.045900
     1397.819400       0.045400
     1397.917100       0.044900
     1398.014800       0.044500
     1398.112500       0.044000
     1398.210300       0.043500
     1398.308000       0.043000
     1398.405800       0.042600
     1398.503600       0.042100
     1398.601400       0.041700
     1398.699200       0.041200
     1398.797000       0.040800
     1398.894900       0.040300
     1398.992700       0.039900
     1399.090600       0.039500
     1399.188500       0.039100
     1399.286400       0.038600
     1399.384300       0.038200
     1399.482200       0.037800
     1399.580100       0.037400
     1399.678100       0.037000
     1399.776000       0.036600
     1399.874000       0.036200
     1399.972000       0.035900
     1400.070000       0.035500
     1400.168000       0.035100
     1400.266100       0.034700
     1400.364100       0.034400
     1400.462200       0.034000
     1400.560200       0.033700
     1400.658300       0.033300
     1400.756400       0.033000
     1400.854500       0.032600
     1400.952600       0.032300
     1401.050800       0.032000
     1401.148900       0.031600
     1401.247100       0.031300
     1401.345300       0.031000
     1401.443500       0.030700
     1401.541700       0.030400
     1401.639900       0.030100
     1401.738200       0.029800
     1401.836400       0.029500
     1401.934700       0.029200
     1402.032900       0.028900
     1402.131200       0.028600
     1402.229500       0.028400
     1402.327900       0.028100
     1402.426200       0.027800
     1402.524500       0.027500
     1402.622900       0.027300
     1402.721300       0.027000
     1402.819700       0.026800
     1402.918100       0.026500
     1403.016500       0.026300
     1403.114900       0.026000
     1403.213400       0.025800
     1403.311800       0.025500
     1403.410300       0.025300
     1403.508800       0.025100
     1403.607300       0.024800
     1403.705800       0.024600
     1403.804300       0.024400
     1403.902800       0.024200
     1404.001400       0.023900
     1404.100000       0.023700
     1404.198600       0.023500
     1404.297100       0.023300
     1404.395800       0.023100
     1404.494400       0.022900
     1404.593000       0.022700
     1404.691700       0.022500
     1404.790300       0.022300
     1404.889000       0.022100
     1404.987700       0.021900
     1405.086400       0.021700
     1405.185100       0.021500
     1405.283900       0.021300
     1405.382600       0.021100
     1405.481400       0.021000
     1405.580200       0.020800
     1405.678900       0.020600
     1405.777700       0.020400
     1405.876600       0.020200
     1405.975400       0.020100
     1406.074200       0.019900
     1406.173100       0.019700
     1406.272000       0.019600
     1406.370900       0.019400
     1406.469800       0.019200
     1406.568700       0.019100
     1406.667600       0.018900
     1406.766500       0.018700
     1406.865500       0.018600
     1406.964500       0.018400
     1407.063500       0.018200
     1407.162500       0.018100
     1407.261500       0.017900
     1407.360500       0.017800
     1407.459500       0.017600
     1407.558600       0.017500
     1407.657700       0.017300
     1407.756700       0.017100
     1407.855800       0.017000
     1407.954900       0.016800
     1408.054100       0.016700
     1408.153200       0.016500
     1408.252400       0.016400
     1408.351500       0.016200
     1408.450700       0.016100
     1408.549900       0.015900
     1408.649100       0.015800
     1408.748300       0.015600
     1408.847600       0.015500
     1408.946800       0.015300
     1409.046100       0.015200
     1409.145400       0.015000
     1409.244600       0.014900
     1409.344000       0.014700
     1409.443300       0.014600
     1409.542600       0.014500
     1409.642000       0.014300
     1409.741300       0.014200
     1409.840700       0.014000
     1409.940100       0.013900
     1410.039500       0.013800
     1410.138900       0.013600
     1410.238300       0.013500
     1410.337800       0.013400
     1410.437200       0.013300
     1410.536700       0.013100
     1410.636200       0.013000
     1410.735700       0.012900
     1410.835200       0.012800
     1410.934700       0.012700
     1411.034300       0.012500
     1411.133800       0.012400
     1411.233400       0.012300
     1411.333000       0.012200
     1411.432600       0.012100
     1411.532200       0.012000
     1411.631800       0.011900
     1411.731500       0.011800
     1411.831100       0.011700
     1411.930800       0.011600
     1412.030500       0.011500
     1412.130200       0.011400
     1412.229900       0.011300
     1412.329600       0.011200
     1412.429400       0.011200
     1412.529100       0.011100
     1412.628900       0.011000
     1412.728700       0.010900
     1412.828500       0.010800
     1412.928300       0.010800
     1413.028100       0.010700
     1413.128000       0.010600
     1413.227800       0.010500
     1413.327700       0.010500
     1413.427600       0.010400
     1413.527500       0.010300
     1413.627400       0.010200
     1413.727300       0.010200
     1413.827200       0.010100
     1413.927200       0.010000
     1414.027100       0.010000
     1414.127100       0.009900
     1414.227100       0.009800
     1414.327100       0.009800
     1414.427200       0.009700
     1414.527200       0.009600
     1414.627200       0.009600
     1414.727300       0.009500
     1414.827400       0.009400
     1414.927500       0.009300
     1415.027600       0.009300
     1415.127700       0.009200
     1415.227900       0.009100
     1415.328000       0.009100
     1415.428200       0.009000
     1415.528300       0.008900
     1415.628500       0.008800
     1415.728700       0.008800
     1415.829000       0.008700
     1415.929200       0.008600
     1416.029500       0.008500
     1416.129700       0.008400
     1416.230000       0.008400
     1416.330300       0.008300
     1416.430600       0.008200
     1416.530900       0.008100
     1416.631300       0.008000
     1416.731600       0.008000
     1416.832000       0.007900
     1416.932300       0.007800
     1417.032700       0.007700
     1417.133100       0.007600
     1417.233600       0.007500
     1417.334000       0.007500
     1417.434400       0.007400
     1417.534900       0.007300
     1417.635400       0.007200
     1417.735900       0.007200
     1417.836400       0.007100
     1417.936900       0.007000
     1418.037400       0.006900
     1418.138000       0.006900
     1418.238500       0.006800
     1418.339100       0.006700
     1418.439700       0.006700
     1418.540300       0.006600
     1418.640900       0.006500
     1418.741600       0.006500
     1418.842200       0.006400
     1418.942900       0.006400
     1419.043600       0.006300
     1419.144300       0.006200
     1419.245000       0.006200
     1419.345700       0.006200
     1419.446400       0.006100
     1419.547200       0.006100
     1419.647900       0.006000
     1419.748700       0.006000
     1419.849500       0.006000
     1419.950300       0.005900
     1420.051100       0.005900
     1420.152000       0.005900
     1420.252800       0.005800
     1420.353700       0.005800
     1420.454500       0.005800
     1420.555400       0.005800
     1420.656300       0.005700
     1420.757300       0.005700
     1420.858200       0.005700
     1420.959100       0.005700
     1421.060100       0.005700
     1421.161100       0.005700
     1421.262100       0.005600
     1421.363100       0.005600
     1421.464100       0.005600
     1421.565100       0.005600
     1421.666200       0.005600
     1421.767300       0.005600
     1421.868300       0.005600
     1421.969400       0.005600
     1422.070500       0.005600
     1422.171700       0.005500
     1422.272800       0.005500
     1422.373900       0.005500
     1422.475100       0.005500
     1422.576300       0.005500
     1422.677500       0.005500
     1422.778700       0.005500
     1422.879900       0.005400
     1422.981100       0.005400
     1423.082400       0.005400
     1423.183700       0.005400
     1423.284900       0.005400
     1423.386200       0.005400
     1423.487500       0.005300
     1423.588900       0.005300
     1423.690200       0.005300
     1423.791600       0.005300
     1423.892900       0.005200
     1423.994300       0.005200
     1424.095700       0.005200
     1424.197100       0.005200
     1424.298500       0.005100
     1424.400000       0.005100
     1424.501400       0.005100
     1424.602900       0.005000
     1424.704400       0.005000
     1424.805900       0.005000
     1424.907400       0.004900
     1425.008900       0.004900
     1425.110400       0.004900
     1425.212000       0.004800
     1425.313600       0.004800
     1425.415200       0.004800
     1425.516700       0.004700
     1425.618400       0.004700
     1425.720000       0.004700
     1425.821600       0.004600
     1425.923300       0.004600
     1426.025000       0.004600
     1426.126600       0.004600
     1426.228300       0.004500
     1426.330100       0.004500
     1426.431800       0.004500
     1426.533500       0.004400
     1426.635300       0.004400
     1426.737100       0.004400
     1426.838800       0.004400
     1426.940600       0.004300
     1427.042500       0.004300
     1427.144300       0.004300
     1427.246100       0.004300
     1427.348000       0.004200
     1427.449900       0.004200
     1427.551700       0.004200
     1427.653700       0.004200
     1427.755600       0.004200
     1427.857500       0.004100
     1427.959400       0.004100
     1428.061400       0.004100
     1428.163400       0.004100
     1428.265400       0.004100
     1428.367400       0.004100
     1428.469400       0.004100
     1428.571400       0.004100
     1428.673500       0.004000
     1428.775500       0.004000
     1428.877600       0.004000
     1428.979700       0.004000
     1429.081800       0.004000
     1429.183900       0.004000
     1429.286100       0.004000
     1429.388200       0.004000
     1429.490400       0.004000
     1429.592600       0.003900
     1429.694800       0.003900
     1429.797000       0.003900
     1429.899200       0.003900
     1430.001400       0.003900
     1430.103700       0.003900
     1430.205900       0.003900
     1430.308200       0.003900
     1430.410500       0.003900
     1430.512800       0.003800
     1430.615200       0.003800
     1430.717500       0.003800
     1430.819900       0.003800
     1430.922200       0.003800
     1431.024600       0.003800
     1431.127000       0.003700
     1431.229400       0.003700
     1431.331900       0.003700
     1431.434300       0.003700
     1431.536800       0.003700
     1431.639200       0.003700
     1431.741700       0.003600
     1431.844200       0.003600
     1431.946700       0.003600
     1432.049300       0.003600
     1432.151800       0.003600
     1432.254400       0.003500
     1432.356900       0.003500
     1432.459500       0.003500
     1432.562100       0.003500
     1432.664800       0.003500
     1432.767400       0.003400
     1432.870000       0.003400
     1432.972700       0.003400
     1433.075400       0.003400
     1433.178100       0.003300
     1433.280800       0.003300
     1433.383500       0.003300
     1433.486200       0.003300
     1433.589000       0.003300
     1433.691800       0.003200
     1433.794500       0.003200
     1433.897300       0.003200
     1434.000100       0.003200
     1434.103000       0.003200
     1434.205800       0.003100
     1434.308700       0.003100
     1434.411500       0.003100
     1434.514400       0.003100
     1434.617300       0.003100
     1434.720200       0.003100
     1434.823200       0.003000
     1434.926100       0.003000
     1435.029100       0.003000
     1435.132000       0.003000
     1435.235000       0.003000
     1435.338000       0.003000
     1435.441000       0.003000
     1435.544100       0.002900
     1435.647100       0.002900
     1435.750200       0.002900
     1435.853300       0.002900
     1435.956300       0.002900
     1436.059500       0.002900
     1436.162600       0.002900
     1436.265700       0.002900
     1436.368900       0.002900
     1436.472000       0.002900
     1436.575200       0.002800
     1436.678400       0.002800
     1436.781600       0.002800
     1436.884800       0.002800
     1436.988100       0.002800
     1437.091300       0.002800
     1437.194600       0.002800
     1437.297900       0.002800
     1437.401200       0.002800
     1437.504500       0.002800
     1437.607800       0.002700
     1437.711200       0.002700
     1437.814500       0.002700
     1437.917900       0.002700
     1438.021300       0.002700
     1438.124700       0.002700
     1438.228100       0.002700
     1438.331500       0.002700
     1438.435000       0.002600
     1438.538400       0.002600
     1438.641900       0.002600
     1438.745400       0.002600
     1438.848900       0.002600
     1438.952400       0.002600
     1439.056000       0.002500
     1439.159500       0.002500
     1439.263100       0.002500
     1439.366700       0.002500
     1439.470300       0.002400
     1439.573900       0.002400
     1439.677500       0.002400
     1439.781200       0.002400
     1439.884800       0.002400
     1439.988500       0.002300
     1440.092200       0.002300
     1440.195900       0.002300
     1440.299600       0.002300
     1440.403300       0.002200
     1440.507100       0.002200
     1440.610800       0.002200
     1440.714600       0.002200
     1440.818400       0.002100
     1440.922200       0.002100
     1441.026000       0.002100
     1441.129800       0.002100
     1441.233700       0.002100
     1441.337600       0.002000
     1441.441400       0.002000
     1441.545300       0.002000
     1441.649200       0.002000
     1441.753200       0.002000
     1441.857100       0.001900
     1441.961100       0.001900
     1442.065000       0.001900
     1442.169000       0.001900
     1442.273000       0.001900
     1442.377000       0.001900
     1442.481100       0.001900
     1442.585100       0.001800
     1442.689200       0.001800
     1442.793200       0.001800
     1442.897300       0.001800
     1443.001400       0.001800
     1443.105600       0.001800
     1443.209700       0.001800
     1443.313800       0.001800
     1443.418000       0.001800
     1443.522200       0.001800
     1443.626400       0.001800
     1443.730600       0.001800
     1443.834800       0.001800
     1443.939100       0.001800
     1444.043300       0.001800
     1444.147600       0.001800
     1444.251900       0.001800
     1444.356200       0.001700
     1444.460500       0.001700
     1444.564800       0.001700
     1444.669200       0.001700
