27,   27, MVIRI VIS channel from srf_MET7_2000348_2000349_1801-Release_S10EE_10.dat
Number of data points:
793
Wavenumber (cm-1)   Filter response
     8442.380800       0.000000
     8449.514200       0.000000
     8456.659600       0.000004
     8463.817200       0.000053
     8470.986900       0.000157
     8478.168700       0.000314
     8485.362700       0.000522
     8492.569000       0.000781
     8499.787500       0.001088
     8507.018300       0.001442
     8514.261400       0.001842
     8521.516800       0.002287
     8528.784600       0.002775
     8536.064900       0.003306
     8543.357500       0.003877
     8550.662700       0.004488
     8557.980300       0.005138
     8565.310500       0.005826
     8572.653200       0.006550
     8580.008600       0.007310
     8587.376600       0.008106
     8594.757200       0.008935
     8602.150500       0.009797
     8609.556600       0.010691
     8616.975400       0.011617
     8624.407100       0.012575
     8631.851500       0.013562
     8639.308900       0.014578
     8646.779100       0.015624
     8654.262200       0.016697
     8661.758300       0.017798
     8669.267400       0.018926
     8676.789600       0.020081
     8684.324800       0.021261
     8691.873100       0.022467
     8699.434500       0.023699
     8707.009100       0.024954
     8714.596900       0.026234
     8722.198000       0.027538
     8729.812300       0.028866
     8737.439900       0.030216
     8745.080900       0.031590
     8752.735200       0.032986
     8760.403000       0.034404
     8768.084200       0.035844
     8775.778900       0.037306
     8783.487000       0.038790
     8791.208800       0.040295
     8798.944100       0.041821
     8806.693100       0.043369
     8814.455700       0.044937
     8822.232000       0.046526
     8830.022100       0.048135
     8837.825900       0.049765
     8845.643500       0.051416
     8853.475000       0.053087
     8861.320300       0.054778
     8869.179600       0.056489
     8877.052800       0.058220
     8884.940000       0.059972
     8892.841300       0.061743
     8900.756600       0.063535
     8908.686000       0.065347
     8916.629500       0.067179
     8924.587200       0.069031
     8932.559200       0.070902
     8940.545400       0.072795
     8948.545900       0.074707
     8956.560700       0.076639
     8964.589900       0.078592
     8972.633500       0.080565
     8980.691500       0.082558
     8988.764000       0.084572
     8996.851100       0.086606
     9004.952700       0.088661
     9013.068900       0.090736
     9021.199800       0.092832
     9029.345400       0.094949
     9037.505600       0.097086
     9045.680700       0.099245
     9053.870500       0.101424
     9062.075200       0.103625
     9070.294800       0.105847
     9078.529300       0.108089
     9086.778700       0.110354
     9095.043200       0.112640
     9103.322700       0.114947
     9111.617300       0.117277
     9119.927000       0.119628
     9128.251900       0.122000
     9136.592100       0.124395
     9144.947400       0.126812
     9153.318100       0.129251
     9161.704100       0.131712
     9170.105500       0.134196
     9178.522300       0.136702
     9186.954500       0.139230
     9195.402300       0.141781
     9203.865600       0.144355
     9212.344500       0.146951
     9220.839100       0.149570
     9229.349300       0.152212
     9237.875300       0.154877
     9246.417000       0.157565
     9254.974500       0.160276
     9263.547900       0.163011
     9272.137200       0.165768
     9280.742500       0.168549
     9289.363700       0.171352
     9298.000900       0.174180
     9306.654300       0.177031
     9315.323700       0.179905
     9324.009300       0.182802
     9332.711200       0.185723
     9341.429200       0.188668
     9350.163600       0.191636
     9358.914400       0.194627
     9367.681500       0.197642
     9376.465100       0.200681
     9385.265100       0.203743
     9394.081700       0.206828
     9402.914900       0.209937
     9411.764700       0.213070
     9420.631200       0.216226
     9429.514400       0.219405
     9438.414300       0.222607
     9447.331100       0.225833
     9456.264800       0.229083
     9465.215300       0.232355
     9474.182900       0.235650
     9483.167400       0.238969
     9492.169000       0.242311
     9501.187600       0.245675
     9510.223500       0.249063
     9519.276500       0.252473
     9528.346800       0.255906
     9537.434400       0.259362
     9546.539400       0.262839
     9555.661700       0.266339
     9564.801500       0.269861
     9573.958800       0.273406
     9583.133700       0.276972
     9592.326100       0.280560
     9601.536200       0.284170
     9610.764100       0.287801
     9620.009600       0.291454
     9629.273000       0.295127
     9638.554200       0.298822
     9647.853400       0.302537
     9657.170400       0.306273
     9666.505600       0.310030
     9675.858700       0.313806
     9685.230000       0.317603
     9694.619500       0.321419
     9704.027200       0.325255
     9713.453100       0.329111
     9722.897400       0.332986
     9732.360100       0.336879
     9741.841200       0.340791
     9751.340800       0.344721
     9760.859000       0.348670
     9770.395700       0.352637
     9779.951100       0.356621
     9789.525200       0.360623
     9799.118100       0.364641
     9808.729800       0.368677
     9818.360300       0.372729
     9828.009800       0.376797
     9837.678300       0.380881
     9847.365800       0.384981
     9857.072400       0.389096
     9866.798200       0.393227
     9876.543200       0.397371
     9886.307500       0.401531
     9896.091000       0.405704
     9905.894000       0.409891
     9915.716400       0.414092
     9925.558300       0.418305
     9935.419800       0.422532
     9945.300800       0.426770
     9955.201600       0.431021
     9965.122100       0.435283
     9975.062300       0.439556
     9985.022500       0.443841
     9995.002500       0.448136
    10005.002500       0.452441
    10015.022500       0.456756
    10025.062700       0.461080
    10035.122900       0.465413
    10045.203400       0.469755
    10055.304200       0.474105
    10065.425300       0.478463
    10075.566800       0.482828
    10085.728700       0.487201
    10095.911200       0.491580
    10106.114200       0.495965
    10116.337900       0.500356
    10126.582300       0.504752
    10136.847400       0.509153
    10147.133400       0.513559
    10157.440300       0.517969
    10167.768200       0.522382
    10178.117000       0.526798
    10188.487000       0.531218
    10198.878100       0.535640
    10209.290500       0.540064
    10219.724100       0.544489
    10230.179000       0.548915
    10240.655400       0.553342
    10251.153300       0.557769
    10261.672700       0.562196
    10272.213700       0.566622
    10282.776300       0.571046
    10293.360800       0.575470
    10303.967000       0.579891
    10314.595200       0.584309
    10325.245200       0.588724
    10335.917300       0.593137
    10346.611500       0.597545
    10357.327800       0.601948
    10368.066400       0.606347
    10378.827200       0.610741
    10389.610400       0.615129
    10400.416000       0.619511
    10411.244100       0.623886
    10422.094800       0.628254
    10432.968200       0.632614
    10443.864200       0.636966
    10454.783100       0.641310
    10465.724800       0.645645
    10476.689400       0.649971
    10487.677000       0.654286
    10498.687700       0.658592
    10509.721500       0.662886
    10520.778500       0.667169
    10531.858900       0.671441
    10542.962600       0.675701
    10554.089700       0.679948
    10565.240400       0.684182
    10576.414600       0.688402
    10587.612500       0.692608
    10598.834100       0.696801
    10610.079600       0.700978
    10621.348900       0.705140
    10632.642200       0.709287
    10643.959600       0.713417
    10655.301000       0.717531
    10666.666700       0.721628
    10678.056600       0.725707
    10689.470900       0.729768
    10700.909600       0.733812
    10712.372800       0.737836
    10723.860600       0.741842
    10735.373100       0.745827
    10746.910300       0.749793
    10758.472300       0.753739
    10770.059200       0.757664
    10781.671200       0.761567
    10793.308100       0.765449
    10804.970300       0.769309
    10816.657700       0.773147
    10828.370300       0.776962
    10840.108400       0.780754
    10851.871900       0.784522
    10863.661100       0.788266
    10875.475800       0.791986
    10887.316300       0.795681
    10899.182600       0.799351
    10911.074700       0.802996
    10922.992900       0.806615
    10934.937100       0.810208
    10946.907500       0.813775
    10958.904100       0.817314
    10970.927000       0.820827
    10982.976400       0.824312
    10995.052200       0.827769
    11007.154700       0.831197
    11019.283700       0.834598
    11031.439600       0.837969
    11043.622300       0.841312
    11055.832000       0.844625
    11068.068600       0.847908
    11080.332400       0.851161
    11092.623400       0.854384
    11104.941700       0.857576
    11117.287400       0.860737
    11129.660500       0.863866
    11142.061300       0.866965
    11154.489700       0.870031
    11166.945800       0.873066
    11179.429800       0.876068
    11191.941800       0.879038
    11204.481800       0.881975
    11217.049900       0.884878
    11229.646300       0.887749
    11242.270900       0.890586
    11254.924000       0.893389
    11267.605600       0.896159
    11280.315800       0.898894
    11293.054800       0.901595
    11305.822500       0.904261
    11318.619100       0.906892
    11331.444800       0.909489
    11344.299500       0.912050
    11357.183400       0.914576
    11370.096600       0.917066
    11383.039300       0.919521
    11396.011400       0.921940
    11409.013100       0.924323
    11422.044500       0.926670
    11435.105800       0.928981
    11448.196900       0.931255
    11461.318100       0.933493
    11474.469300       0.935694
    11487.650800       0.937858
    11500.862600       0.939985
    11514.104800       0.942076
    11527.377500       0.944129
    11540.680900       0.946145
    11554.015000       0.948124
    11567.380000       0.950066
    11580.775900       0.951970
    11594.202900       0.953837
    11607.661100       0.955666
    11621.150500       0.957458
    11634.671300       0.959212
    11648.223600       0.960929
    11661.807600       0.962608
    11675.423200       0.964249
    11689.070700       0.965852
    11702.750100       0.967418
    11716.461600       0.968946
    11730.205300       0.970437
    11743.981200       0.971889
    11757.789500       0.973304
    11771.630400       0.974682
    11785.503800       0.976021
    11799.410000       0.977323
    11813.349100       0.978588
    11827.321100       0.979815
    11841.326200       0.981005
    11855.364600       0.982157
    11869.436200       0.983272
    11883.541300       0.984349
    11897.680000       0.985390
    11911.852300       0.986393
    11926.058400       0.987360
    11940.298500       0.988289
    11954.572600       0.989182
    11968.880900       0.990038
    11983.223500       0.990858
    11997.600500       0.991641
    12012.012000       0.992388
    12026.458200       0.993099
    12040.939200       0.993774
    12055.455100       0.994413
    12070.006000       0.995016
    12084.592100       0.995584
    12099.213600       0.996117
    12113.870400       0.996614
    12128.562800       0.997077
    12143.290800       0.997504
    12158.054700       0.997897
    12172.854500       0.998256
    12187.690400       0.998581
    12202.562500       0.998871
    12217.471000       0.999128
    12232.415900       0.999351
    12247.397400       0.999541
    12262.415700       0.999698
    12277.470800       0.999822
    12292.563000       0.999914
    12307.692300       0.999973
    12322.858900       1.000000
    12338.062900       0.999995
    12353.304500       0.999959
    12368.583800       0.999892
    12383.900900       0.999793
    12399.256000       0.999664
    12414.649300       0.999505
    12430.080800       0.999315
    12445.550700       0.999096
    12461.059200       0.998847
    12476.606400       0.998569
    12492.192400       0.998262
    12507.817400       0.997926
    12523.481500       0.997563
    12539.185000       0.997171
    12554.927800       0.996752
    12570.710200       0.996305
    12586.532400       0.995832
    12602.394500       0.995332
    12618.296500       0.994806
    12634.238800       0.994254
    12650.221400       0.993677
    12666.244500       0.993074
    12682.308200       0.992447
    12698.412700       0.991795
    12714.558200       0.991119
    12730.744700       0.990420
    12746.972600       0.989698
    12763.241900       0.988952
    12779.552700       0.988184
    12795.905300       0.987394
    12812.299800       0.986583
    12828.736400       0.985750
    12845.215200       0.984896
    12861.736300       0.984022
    12878.300100       0.983127
    12894.906500       0.982213
    12911.555800       0.981280
    12928.248200       0.980328
    12944.983800       0.979357
    12961.762800       0.978369
    12978.585300       0.977363
    12995.451600       0.976339
    13012.361700       0.975299
    13029.316000       0.974243
    13046.314400       0.973171
    13063.357300       0.972084
    13080.444700       0.970981
    13097.576900       0.969864
    13114.754100       0.968733
    13131.976400       0.967588
    13149.243900       0.966430
    13166.556900       0.965259
    13183.915600       0.964076
    13201.320100       0.962881
    13218.770700       0.961675
    13236.267400       0.960457
    13253.810500       0.959229
    13271.400100       0.957991
    13289.036500       0.956743
    13306.719900       0.955486
    13324.450400       0.954221
    13342.228200       0.952946
    13360.053400       0.951665
    13377.926400       0.950375
    13395.847300       0.949079
    13413.816200       0.947777
    13431.833400       0.946468
    13449.899100       0.945154
    13468.013500       0.943834
    13486.176700       0.942510
    13504.388900       0.941182
    13522.650400       0.939850
    13540.961400       0.938514
    13559.322000       0.937176
    13577.732500       0.935835
    13596.193100       0.934492
    13614.703900       0.933148
    13633.265200       0.931803
    13651.877100       0.930456
    13670.540000       0.929110
    13689.253900       0.927764
    13708.019200       0.926418
    13726.836000       0.925074
    13745.704500       0.923731
    13764.624900       0.922390
    13783.597500       0.921051
    13802.622500       0.919715
    13821.700100       0.918383
    13840.830400       0.917053
    13860.013900       0.915728
    13879.250500       0.914408
    13898.540700       0.913092
    13917.884500       0.911782
    13937.282200       0.910477
    13956.734100       0.909178
    13976.240400       0.907886
    13995.801300       0.906600
    14015.417000       0.905322
    14035.087700       0.904051
    14054.813800       0.902789
    14074.595400       0.901535
    14094.432700       0.900289
    14114.326000       0.899053
    14134.275600       0.897827
    14154.281700       0.896610
    14174.344400       0.895403
    14194.464200       0.894207
    14214.641100       0.893022
    14234.875400       0.891848
    14255.167500       0.890686
    14275.517500       0.889536
    14295.925700       0.888398
    14316.392300       0.887272
    14336.917600       0.886160
    14357.501800       0.885061
    14378.145200       0.883975
    14398.848100       0.882903
    14419.610700       0.881845
    14440.433200       0.880802
    14461.316000       0.879773
    14482.259200       0.878760
    14503.263200       0.877761
    14524.328200       0.876779
    14545.454500       0.875811
    14566.642400       0.874860
    14587.892000       0.873926
    14609.203800       0.873007
    14630.577900       0.872106
    14652.014700       0.871221
    14673.514300       0.870354
    14695.077100       0.869504
    14716.703500       0.868671
    14738.393500       0.867857
    14760.147600       0.867060
    14781.966000       0.866282
    14803.849000       0.865522
    14825.796900       0.864780
    14847.809900       0.864057
    14869.888500       0.863353
    14892.032800       0.862668
    14914.243100       0.862002
    14936.519800       0.861356
    14958.863100       0.860728
    14981.273400       0.860121
    15003.750900       0.859532
    15026.296000       0.858964
    15048.909000       0.858415
    15071.590100       0.857886
    15094.339600       0.857377
    15117.158000       0.856888
    15140.045400       0.856419
    15163.002300       0.855970
    15186.028900       0.855541
    15209.125500       0.855133
    15232.292500       0.854744
    15255.530100       0.854376
    15278.838800       0.854028
    15302.218800       0.853700
    15325.670500       0.853392
    15349.194200       0.853104
    15372.790200       0.852837
    15396.458800       0.852589
    15420.200500       0.852362
    15444.015400       0.852154
    15467.904100       0.851966
    15491.866800       0.851798
    15515.903800       0.851650
    15540.015500       0.851521
    15564.202300       0.851412
    15588.464500       0.851322
    15612.802500       0.851251
    15637.216600       0.851200
    15661.707100       0.851167
    15686.274500       0.851153
    15710.919100       0.851158
    15735.641200       0.851181
    15760.441300       0.851222
    15785.319700       0.851282
    15810.276700       0.851359
    15835.312700       0.851454
    15860.428200       0.851566
    15885.623500       0.851695
    15910.899000       0.851842
    15936.255000       0.852004
    15961.691900       0.852184
    15987.210200       0.852379
    16012.810200       0.852590
    16038.492400       0.852817
    16064.257000       0.853058
    16090.104600       0.853315
    16116.035500       0.853586
    16142.050000       0.853872
    16168.148700       0.854171
    16194.332000       0.854484
    16220.600200       0.854809
    16246.953700       0.855148
    16273.393000       0.855499
    16299.918500       0.855862
    16326.530600       0.856236
    16353.229800       0.856622
    16380.016400       0.857018
    16406.890900       0.857424
    16433.853700       0.857841
    16460.905300       0.858266
    16488.046200       0.858701
    16515.276600       0.859144
    16542.597200       0.859595
    16570.008300       0.860053
    16597.510400       0.860518
    16625.103900       0.860990
    16652.789300       0.861467
    16680.567100       0.861950
    16708.437800       0.862437
    16736.401700       0.862929
    16764.459300       0.863425
    16792.611300       0.863923
    16820.857900       0.864424
    16849.199700       0.864927
    16877.637100       0.865431
    16906.170800       0.865936
    16934.801000       0.866442
    16963.528400       0.866946
    16992.353400       0.867449
    17021.276600       0.867951
    17050.298400       0.868450
    17079.419300       0.868946
    17108.639900       0.869438
    17137.960600       0.869926
    17167.382000       0.870409
    17196.904600       0.870886
    17226.528900       0.871356
    17256.255400       0.871819
    17286.084700       0.872274
    17316.017300       0.872720
    17346.053800       0.873157
    17376.194600       0.873584
    17406.440400       0.873999
    17436.791600       0.874404
    17467.248900       0.874795
    17497.812800       0.875174
    17528.483800       0.875539
    17559.262500       0.875888
    17590.149500       0.876223
    17621.145400       0.876541
    17652.250700       0.876842
    17683.466000       0.877125
    17714.791900       0.877389
    17746.228900       0.877634
    17777.777800       0.877858
    17809.439000       0.878062
    17841.213200       0.878243
    17873.101000       0.878402
    17905.103000       0.878536
    17937.219700       0.878647
    17969.451900       0.878732
    18001.800200       0.878790
    18034.265100       0.878822
    18066.847300       0.878826
    18099.547500       0.878801
    18132.366300       0.878746
    18165.304300       0.878661
    18198.362100       0.878545
    18231.540600       0.878396
    18264.840200       0.878214
    18298.261700       0.877998
    18331.805700       0.877747
    18365.472900       0.877461
    18399.264000       0.877138
    18433.179700       0.876777
    18467.220700       0.876378
    18501.387600       0.875940
    18535.681200       0.875462
    18570.102100       0.874942
    18604.651200       0.874381
    18639.329000       0.873777
    18674.136300       0.873129
    18709.073900       0.872437
    18744.142500       0.871699
    18779.342700       0.870915
    18814.675400       0.870084
    18850.141400       0.869205
    18885.741300       0.868277
    18921.475900       0.867299
    18957.346000       0.866271
    18993.352300       0.865191
    19029.495700       0.864058
    19065.776900       0.862873
    19102.196800       0.861634
    19138.756000       0.860339
    19175.455400       0.858989
    19212.295900       0.857583
    19249.278200       0.856119
    19286.403100       0.854597
    19323.671500       0.853016
    19361.084200       0.851376
    19398.642100       0.849674
    19436.346000       0.847912
    19474.196700       0.846087
    19512.195100       0.844200
    19550.342100       0.842249
    19588.638600       0.840233
    19627.085400       0.838153
    19665.683400       0.836006
    19704.433500       0.833793
    19743.336600       0.831513
    19782.393700       0.829165
    19821.605600       0.826748
    19860.973200       0.824262
    19900.497500       0.821706
    19940.179500       0.819080
    19980.020000       0.816382
    20020.020000       0.813612
    20060.180500       0.810770
    20100.502500       0.807855
    20140.986900       0.804867
    20181.634700       0.801804
    20222.446900       0.798667
    20263.424500       0.795454
    20304.568500       0.792166
    20345.880000       0.788801
    20387.359800       0.785360
    20429.009200       0.781842
    20470.829100       0.778246
    20512.820500       0.774573
    20554.984600       0.770821
    20597.322300       0.766991
    20639.834900       0.763081
    20682.523300       0.759093
    20725.388600       0.755024
    20768.432000       0.750876
    20811.654500       0.746648
    20855.057400       0.742340
    20898.641600       0.737951
    20942.408400       0.733481
    20986.358900       0.728930
    21030.494200       0.724299
    21074.815600       0.719586
    21119.324200       0.714793
    21164.021200       0.709918
    21208.907700       0.704962
    21253.985100       0.699925
    21299.254500       0.694807
    21344.717200       0.689608
    21390.374300       0.684328
    21436.227200       0.678968
    21482.277100       0.673527
    21528.525300       0.668005
    21574.973000       0.662404
    21621.621600       0.656723
    21668.472400       0.650963
    21715.526600       0.645123
    21762.785600       0.639205
    21810.250800       0.633209
    21857.923500       0.627135
    21905.805000       0.620984
    21953.896800       0.614756
    22002.200200       0.608452
    22050.716600       0.602073
    22099.447500       0.595619
    22148.394200       0.589091
    22197.558300       0.582489
    22246.941000       0.575815
    22296.544000       0.569070
    22346.368700       0.562254
    22396.416600       0.555368
    22446.689100       0.548414
    22497.187900       0.541392
    22547.914300       0.534303
    22598.870100       0.527149
    22650.056600       0.519930
    22701.475600       0.512649
    22753.128600       0.505306
    22805.017100       0.497902
    22857.142900       0.490440
    22909.507400       0.482920
    22962.112500       0.475344
    23014.959700       0.467713
    23068.050700       0.460030
    23121.387300       0.452296
    23174.971000       0.444512
    23228.803700       0.436681
    23282.887100       0.428804
    23337.222900       0.420883
    23391.812900       0.412921
    23446.658900       0.404918
    23501.762600       0.396879
    23557.126000       0.388803
    23612.750900       0.380695
    23668.639100       0.372556
    23724.792400       0.364388
    23781.212800       0.356194
    23837.902300       0.347977
    23894.862600       0.339738
    23952.095800       0.331482
    24009.603800       0.323210
    24067.388700       0.314925
    24125.452400       0.306630
    24183.796900       0.298328
    24242.424200       0.290023
    24301.336600       0.281717
    24360.535900       0.273413
    24420.024400       0.265115
    24479.804200       0.256826
    24539.877300       0.248549
    24600.246000       0.240289
    24660.912500       0.232048
    24721.878900       0.223830
    24783.147500       0.215640
    24844.720500       0.207480
    24906.600200       0.199355
    24968.789000       0.191269
    25031.289100       0.183226
    25094.102900       0.175230
    25157.232700       0.167286
    25220.681000       0.159397
    25284.450100       0.151569
    25348.542500       0.143806
    25412.960600       0.136113
    25477.707000       0.128494
