49,   49, MVIRI VIS channel from srf_MET7_2003258_2003259_1801-Release_S10EE_10.dat
Number of data points:
793
Wavenumber (cm-1)   Filter response
     8442.380800       0.000000
     8449.514200       0.000000
     8456.659600       0.000004
     8463.817200       0.000054
     8470.986900       0.000160
     8478.168700       0.000321
     8485.362700       0.000534
     8492.569000       0.000798
     8499.787500       0.001113
     8507.018300       0.001475
     8514.261400       0.001884
     8521.516800       0.002339
     8528.784600       0.002838
     8536.064900       0.003381
     8543.357500       0.003965
     8550.662700       0.004589
     8557.980300       0.005254
     8565.310500       0.005957
     8572.653200       0.006697
     8580.008600       0.007474
     8587.376600       0.008287
     8594.757200       0.009134
     8602.150500       0.010015
     8609.556600       0.010929
     8616.975400       0.011875
     8624.407100       0.012853
     8631.851500       0.013862
     8639.308900       0.014900
     8646.779100       0.015968
     8654.262200       0.017064
     8661.758300       0.018188
     8669.267400       0.019341
     8676.789600       0.020519
     8684.324800       0.021725
     8691.873100       0.022956
     8699.434500       0.024213
     8707.009100       0.025496
     8714.596900       0.026802
     8722.198000       0.028133
     8729.812300       0.029488
     8737.439900       0.030866
     8745.080900       0.032268
     8752.735200       0.033693
     8760.403000       0.035140
     8768.084200       0.036609
     8775.778900       0.038101
     8783.487000       0.039615
     8791.208800       0.041150
     8798.944100       0.042707
     8806.693100       0.044285
     8814.455700       0.045884
     8822.232000       0.047504
     8830.022100       0.049146
     8837.825900       0.050808
     8845.643500       0.052491
     8853.475000       0.054194
     8861.320300       0.055918
     8869.179600       0.057662
     8877.052800       0.059427
     8884.940000       0.061212
     8892.841300       0.063017
     8900.756600       0.064843
     8908.686000       0.066689
     8916.629500       0.068555
     8924.587200       0.070442
     8932.559200       0.072349
     8940.545400       0.074276
     8948.545900       0.076224
     8956.560700       0.078192
     8964.589900       0.080181
     8972.633500       0.082190
     8980.691500       0.084220
     8988.764000       0.086270
     8996.851100       0.088341
     9004.952700       0.090432
     9013.068900       0.092545
     9021.199800       0.094678
     9029.345400       0.096833
     9037.505600       0.099008
     9045.680700       0.101204
     9053.870500       0.103422
     9062.075200       0.105661
     9070.294800       0.107922
     9078.529300       0.110203
     9086.778700       0.112507
     9095.043200       0.114832
     9103.322700       0.117179
     9111.617300       0.119548
     9119.927000       0.121939
     9128.251900       0.124351
     9136.592100       0.126786
     9144.947400       0.129243
     9153.318100       0.131723
     9161.704100       0.134225
     9170.105500       0.136749
     9178.522300       0.139296
     9186.954500       0.141865
     9195.402300       0.144458
     9203.865600       0.147073
     9212.344500       0.149711
     9220.839100       0.152372
     9229.349300       0.155056
     9237.875300       0.157763
     9246.417000       0.160493
     9254.974500       0.163246
     9263.547900       0.166023
     9272.137200       0.168823
     9280.742500       0.171647
     9289.363700       0.174493
     9298.000900       0.177364
     9306.654300       0.180258
     9315.323700       0.183175
     9324.009300       0.186116
     9332.711200       0.189080
     9341.429200       0.192068
     9350.163600       0.195080
     9358.914400       0.198115
     9367.681500       0.201174
     9376.465100       0.204256
     9385.265100       0.207362
     9394.081700       0.210492
     9402.914900       0.213645
     9411.764700       0.216822
     9420.631200       0.220022
     9429.514400       0.223245
     9438.414300       0.226492
     9447.331100       0.229763
     9456.264800       0.233056
     9465.215300       0.236373
     9474.182900       0.239713
     9483.167400       0.243077
     9492.169000       0.246463
     9501.187600       0.249872
     9510.223500       0.253304
     9519.276500       0.256758
     9528.346800       0.260236
     9537.434400       0.263736
     9546.539400       0.267258
     9555.661700       0.270803
     9564.801500       0.274369
     9573.958800       0.277958
     9583.133700       0.281569
     9592.326100       0.285201
     9601.536200       0.288855
     9610.764100       0.292530
     9620.009600       0.296226
     9629.273000       0.299944
     9638.554200       0.303682
     9647.853400       0.307441
     9657.170400       0.311221
     9666.505600       0.315021
     9675.858700       0.318841
     9685.230000       0.322680
     9694.619500       0.326540
     9704.027200       0.330419
     9713.453100       0.334317
     9722.897400       0.338234
     9732.360100       0.342170
     9741.841200       0.346124
     9751.340800       0.350096
     9760.859000       0.354087
     9770.395700       0.358095
     9779.951100       0.362120
     9789.525200       0.366163
     9799.118100       0.370223
     9808.729800       0.374298
     9818.360300       0.378391
     9828.009800       0.382499
     9837.678300       0.386623
     9847.365800       0.390762
     9857.072400       0.394917
     9866.798200       0.399086
     9876.543200       0.403269
     9886.307500       0.407467
     9896.091000       0.411678
     9905.894000       0.415902
     9915.716400       0.420140
     9925.558300       0.424390
     9935.419800       0.428653
     9945.300800       0.432928
     9955.201600       0.437214
     9965.122100       0.441511
     9975.062300       0.445819
     9985.022500       0.450138
     9995.002500       0.454467
    10005.002500       0.458806
    10015.022500       0.463154
    10025.062700       0.467511
    10035.122900       0.471876
    10045.203400       0.476250
    10055.304200       0.480631
    10065.425300       0.485020
    10075.566800       0.489415
    10085.728700       0.493817
    10095.911200       0.498226
    10106.114200       0.502639
    10116.337900       0.507058
    10126.582300       0.511482
    10136.847400       0.515910
    10147.133400       0.520343
    10157.440300       0.524778
    10167.768200       0.529217
    10178.117000       0.533658
    10188.487000       0.538102
    10198.878100       0.542548
    10209.290500       0.546994
    10219.724100       0.551442
    10230.179000       0.555890
    10240.655400       0.560338
    10251.153300       0.564785
    10261.672700       0.569232
    10272.213700       0.573677
    10282.776300       0.578120
    10293.360800       0.582561
    10303.967000       0.586999
    10314.595200       0.591434
    10325.245200       0.595865
    10335.917300       0.600292
    10346.611500       0.604715
    10357.327800       0.609132
    10368.066400       0.613544
    10378.827200       0.617950
    10389.610400       0.622349
    10400.416000       0.626742
    10411.244100       0.631126
    10422.094800       0.635504
    10432.968200       0.639872
    10443.864200       0.644232
    10454.783100       0.648583
    10465.724800       0.652924
    10476.689400       0.657255
    10487.677000       0.661575
    10498.687700       0.665884
    10509.721500       0.670182
    10520.778500       0.674467
    10531.858900       0.678740
    10542.962600       0.683000
    10554.089700       0.687247
    10565.240400       0.691480
    10576.414600       0.695698
    10587.612500       0.699902
    10598.834100       0.704091
    10610.079600       0.708264
    10621.348900       0.712420
    10632.642200       0.716561
    10643.959600       0.720684
    10655.301000       0.724790
    10666.666700       0.728878
    10678.056600       0.732948
    10689.470900       0.736999
    10700.909600       0.741031
    10712.372800       0.745043
    10723.860600       0.749036
    10735.373100       0.753008
    10746.910300       0.756959
    10758.472300       0.760889
    10770.059200       0.764797
    10781.671200       0.768683
    10793.308100       0.772547
    10804.970300       0.776388
    10816.657700       0.780206
    10828.370300       0.784000
    10840.108400       0.787770
    10851.871900       0.791515
    10863.661100       0.795236
    10875.475800       0.798931
    10887.316300       0.802601
    10899.182600       0.806245
    10911.074700       0.809863
    10922.992900       0.813454
    10934.937100       0.817018
    10946.907500       0.820555
    10958.904100       0.824064
    10970.927000       0.827545
    10982.976400       0.830997
    10995.052200       0.834421
    11007.154700       0.837816
    11019.283700       0.841181
    11031.439600       0.844517
    11043.622300       0.847823
    11055.832000       0.851098
    11068.068600       0.854342
    11080.332400       0.857556
    11092.623400       0.860739
    11104.941700       0.863890
    11117.287400       0.867009
    11129.660500       0.870096
    11142.061300       0.873151
    11154.489700       0.876173
    11166.945800       0.879162
    11179.429800       0.882118
    11191.941800       0.885041
    11204.481800       0.887930
    11217.049900       0.890785
    11229.646300       0.893606
    11242.270900       0.896393
    11254.924000       0.899145
    11267.605600       0.901862
    11280.315800       0.904545
    11293.054800       0.907192
    11305.822500       0.909804
    11318.619100       0.912380
    11331.444800       0.914921
    11344.299500       0.917425
    11357.183400       0.919894
    11370.096600       0.922326
    11383.039300       0.924722
    11396.011400       0.927081
    11409.013100       0.929404
    11422.044500       0.931689
    11435.105800       0.933938
    11448.196900       0.936149
    11461.318100       0.938324
    11474.469300       0.940461
    11487.650800       0.942560
    11500.862600       0.944622
    11514.104800       0.946646
    11527.377500       0.948633
    11540.680900       0.950581
    11554.015000       0.952492
    11567.380000       0.954364
    11580.775900       0.956199
    11594.202900       0.957996
    11607.661100       0.959754
    11621.150500       0.961474
    11634.671300       0.963156
    11648.223600       0.964800
    11661.807600       0.966405
    11675.423200       0.967972
    11689.070700       0.969501
    11702.750100       0.970992
    11716.461600       0.972444
    11730.205300       0.973858
    11743.981200       0.975234
    11757.789500       0.976571
    11771.630400       0.977870
    11785.503800       0.979131
    11799.410000       0.980354
    11813.349100       0.981539
    11827.321100       0.982686
    11841.326200       0.983795
    11855.364600       0.984866
    11869.436200       0.985899
    11883.541300       0.986895
    11897.680000       0.987853
    11911.852300       0.988773
    11926.058400       0.989656
    11940.298500       0.990502
    11954.572600       0.991310
    11968.880900       0.992081
    11983.223500       0.992816
    11997.600500       0.993513
    12012.012000       0.994174
    12026.458200       0.994798
    12040.939200       0.995386
    12055.455100       0.995938
    12070.006000       0.996454
    12084.592100       0.996934
    12099.213600       0.997378
    12113.870400       0.997787
    12128.562800       0.998160
    12143.290800       0.998499
    12158.054700       0.998802
    12172.854500       0.999071
    12187.690400       0.999305
    12202.562500       0.999505
    12217.471000       0.999671
    12232.415900       0.999804
    12247.397400       0.999902
    12262.415700       0.999968
    12277.470800       1.000000
    12292.563000       1.000000
    12307.692300       0.999966
    12322.858900       0.999901
    12338.062900       0.999804
    12353.304500       0.999675
    12368.583800       0.999514
    12383.900900       0.999323
    12399.256000       0.999100
    12414.649300       0.998847
    12430.080800       0.998564
    12445.550700       0.998250
    12461.059200       0.997908
    12476.606400       0.997535
    12492.192400       0.997134
    12507.817400       0.996704
    12523.481500       0.996246
    12539.185000       0.995760
    12554.927800       0.995246
    12570.710200       0.994704
    12586.532400       0.994136
    12602.394500       0.993541
    12618.296500       0.992920
    12634.238800       0.992273
    12650.221400       0.991600
    12666.244500       0.990903
    12682.308200       0.990180
    12698.412700       0.989433
    12714.558200       0.988662
    12730.744700       0.987868
    12746.972600       0.987050
    12763.241900       0.986209
    12779.552700       0.985346
    12795.905300       0.984460
    12812.299800       0.983553
    12828.736400       0.982625
    12845.215200       0.981676
    12861.736300       0.980706
    12878.300100       0.979716
    12894.906500       0.978707
    12911.555800       0.977678
    12928.248200       0.976631
    12944.983800       0.975565
    12961.762800       0.974482
    12978.585300       0.973380
    12995.451600       0.972262
    13012.361700       0.971127
    13029.316000       0.969976
    13046.314400       0.968809
    13063.357300       0.967627
    13080.444700       0.966429
    13097.576900       0.965218
    13114.754100       0.963992
    13131.976400       0.962753
    13149.243900       0.961500
    13166.556900       0.960235
    13183.915600       0.958958
    13201.320100       0.957668
    13218.770700       0.956368
    13236.267400       0.955056
    13253.810500       0.953734
    13271.400100       0.952402
    13289.036500       0.951061
    13306.719900       0.949710
    13324.450400       0.948351
    13342.228200       0.946984
    13360.053400       0.945608
    13377.926400       0.944226
    13395.847300       0.942837
    13413.816200       0.941441
    13431.833400       0.940039
    13449.899100       0.938632
    13468.013500       0.937220
    13486.176700       0.935803
    13504.388900       0.934382
    13522.650400       0.932957
    13540.961400       0.931530
    13559.322000       0.930099
    13577.732500       0.928666
    13596.193100       0.927231
    13614.703900       0.925794
    13633.265200       0.924357
    13651.877100       0.922919
    13670.540000       0.921480
    13689.253900       0.920042
    13708.019200       0.918605
    13726.836000       0.917169
    13745.704500       0.915734
    13764.624900       0.914302
    13783.597500       0.912871
    13802.622500       0.911444
    13821.700100       0.910020
    13840.830400       0.908599
    13860.013900       0.907183
    13879.250500       0.905771
    13898.540700       0.904364
    13917.884500       0.902962
    13937.282200       0.901565
    13956.734100       0.900175
    13976.240400       0.898792
    13995.801300       0.897415
    14015.417000       0.896046
    14035.087700       0.894684
    14054.813800       0.893330
    14074.595400       0.891984
    14094.432700       0.890647
    14114.326000       0.889320
    14134.275600       0.888001
    14154.281700       0.886693
    14174.344400       0.885395
    14194.464200       0.884107
    14214.641100       0.882830
    14234.875400       0.881564
    14255.167500       0.880310
    14275.517500       0.879068
    14295.925700       0.877838
    14316.392300       0.876620
    14336.917600       0.875415
    14357.501800       0.874223
    14378.145200       0.873045
    14398.848100       0.871880
    14419.610700       0.870729
    14440.433200       0.869593
    14461.316000       0.868471
    14482.259200       0.867364
    14503.263200       0.866272
    14524.328200       0.865195
    14545.454500       0.864133
    14566.642400       0.863088
    14587.892000       0.862059
    14609.203800       0.861046
    14630.577900       0.860049
    14652.014700       0.859069
    14673.514300       0.858106
    14695.077100       0.857160
    14716.703500       0.856232
    14738.393500       0.855321
    14760.147600       0.854427
    14781.966000       0.853552
    14803.849000       0.852695
    14825.796900       0.851855
    14847.809900       0.851035
    14869.888500       0.850232
    14892.032800       0.849449
    14914.243100       0.848683
    14936.519800       0.847937
    14958.863100       0.847210
    14981.273400       0.846502
    15003.750900       0.845813
    15026.296000       0.845144
    15048.909000       0.844493
    15071.590100       0.843863
    15094.339600       0.843251
    15117.158000       0.842659
    15140.045400       0.842087
    15163.002300       0.841535
    15186.028900       0.841002
    15209.125500       0.840488
    15232.292500       0.839995
    15255.530100       0.839521
    15278.838800       0.839067
    15302.218800       0.838632
    15325.670500       0.838217
    15349.194200       0.837822
    15372.790200       0.837446
    15396.458800       0.837089
    15420.200500       0.836753
    15444.015400       0.836435
    15467.904100       0.836137
    15491.866800       0.835858
    15515.903800       0.835598
    15540.015500       0.835357
    15564.202300       0.835135
    15588.464500       0.834932
    15612.802500       0.834747
    15637.216600       0.834581
    15661.707100       0.834433
    15686.274500       0.834303
    15710.919100       0.834192
    15735.641200       0.834098
    15760.441300       0.834021
    15785.319700       0.833962
    15810.276700       0.833921
    15835.312700       0.833896
    15860.428200       0.833888
    15885.623500       0.833896
    15910.899000       0.833921
    15936.255000       0.833961
    15961.691900       0.834018
    15987.210200       0.834090
    16012.810200       0.834176
    16038.492400       0.834278
    16064.257000       0.834394
    16090.104600       0.834525
    16116.035500       0.834669
    16142.050000       0.834827
    16168.148700       0.834998
    16194.332000       0.835182
    16220.600200       0.835378
    16246.953700       0.835587
    16273.393000       0.835807
    16299.918500       0.836039
    16326.530600       0.836281
    16353.229800       0.836534
    16380.016400       0.836797
    16406.890900       0.837069
    16433.853700       0.837351
    16460.905300       0.837641
    16488.046200       0.837940
    16515.276600       0.838246
    16542.597200       0.838560
    16570.008300       0.838881
    16597.510400       0.839208
    16625.103900       0.839541
    16652.789300       0.839879
    16680.567100       0.840221
    16708.437800       0.840568
    16736.401700       0.840919
    16764.459300       0.841273
    16792.611300       0.841630
    16820.857900       0.841988
    16849.199700       0.842348
    16877.637100       0.842709
    16906.170800       0.843070
    16934.801000       0.843431
    16963.528400       0.843790
    16992.353400       0.844149
    17021.276600       0.844505
    17050.298400       0.844858
    17079.419300       0.845207
    17108.639900       0.845553
    17137.960600       0.845894
    17167.382000       0.846229
    17196.904600       0.846558
    17226.528900       0.846880
    17256.255400       0.847195
    17286.084700       0.847502
    17316.017300       0.847800
    17346.053800       0.848088
    17376.194600       0.848366
    17406.440400       0.848633
    17436.791600       0.848888
    17467.248900       0.849131
    17497.812800       0.849360
    17528.483800       0.849576
    17559.262500       0.849776
    17590.149500       0.849962
    17621.145400       0.850131
    17652.250700       0.850283
    17683.466000       0.850417
    17714.791900       0.850533
    17746.228900       0.850630
    17777.777800       0.850706
    17809.439000       0.850762
    17841.213200       0.850795
    17873.101000       0.850807
    17905.103000       0.850795
    17937.219700       0.850759
    17969.451900       0.850698
    18001.800200       0.850611
    18034.265100       0.850498
    18066.847300       0.850358
    18099.547500       0.850189
    18132.366300       0.849991
    18165.304300       0.849764
    18198.362100       0.849506
    18231.540600       0.849216
    18264.840200       0.848895
    18298.261700       0.848540
    18331.805700       0.848151
    18365.472900       0.847728
    18399.264000       0.847268
    18433.179700       0.846773
    18467.220700       0.846240
    18501.387600       0.845669
    18535.681200       0.845059
    18570.102100       0.844410
    18604.651200       0.843719
    18639.329000       0.842988
    18674.136300       0.842214
    18709.073900       0.841397
    18744.142500       0.840536
    18779.342700       0.839631
    18814.675400       0.838680
    18850.141400       0.837683
    18885.741300       0.836638
    18921.475900       0.835546
    18957.346000       0.834405
    18993.352300       0.833214
    19029.495700       0.831973
    19065.776900       0.830681
    19102.196800       0.829337
    19138.756000       0.827940
    19175.455400       0.826490
    19212.295900       0.824986
    19249.278200       0.823426
    19286.403100       0.821811
    19323.671500       0.820140
    19361.084200       0.818411
    19398.642100       0.816624
    19436.346000       0.814779
    19474.196700       0.812874
    19512.195100       0.810910
    19550.342100       0.808884
    19588.638600       0.806797
    19627.085400       0.804649
    19665.683400       0.802437
    19704.433500       0.800162
    19743.336600       0.797822
    19782.393700       0.795419
    19821.605600       0.792949
    19860.973200       0.790414
    19900.497500       0.787813
    19940.179500       0.785144
    19980.020000       0.782408
    20020.020000       0.779604
    20060.180500       0.776730
    20100.502500       0.773788
    20140.986900       0.770776
    20181.634700       0.767694
    20222.446900       0.764541
    20263.424500       0.761317
    20304.568500       0.758022
    20345.880000       0.754655
    20387.359800       0.751215
    20429.009200       0.747702
    20470.829100       0.744117
    20512.820500       0.740458
    20554.984600       0.736725
    20597.322300       0.732919
    20639.834900       0.729037
    20682.523300       0.725082
    20725.388600       0.721052
    20768.432000       0.716946
    20811.654500       0.712766
    20855.057400       0.708510
    20898.641600       0.704178
    20942.408400       0.699771
    20986.358900       0.695289
    21030.494200       0.690730
    21074.815600       0.686096
    21119.324200       0.681387
    21164.021200       0.676601
    21208.907700       0.671740
    21253.985100       0.666802
    21299.254500       0.661790
    21344.717200       0.656702
    21390.374300       0.651539
    21436.227200       0.646301
    21482.277100       0.640988
    21528.525300       0.635601
    21574.973000       0.630140
    21621.621600       0.624604
    21668.472400       0.618995
    21715.526600       0.613313
    21762.785600       0.607559
    21810.250800       0.601732
    21857.923500       0.595833
    21905.805000       0.589863
    21953.896800       0.583823
    22002.200200       0.577713
    22050.716600       0.571533
    22099.447500       0.565285
    22148.394200       0.558969
    22197.558300       0.552586
    22246.941000       0.546137
    22296.544000       0.539622
    22346.368700       0.533043
    22396.416600       0.526400
    22446.689100       0.519695
    22497.187900       0.512928
    22547.914300       0.506101
    22598.870100       0.499215
    22650.056600       0.492270
    22701.475600       0.485269
    22753.128600       0.478212
    22805.017100       0.471101
    22857.142900       0.463937
    22909.507400       0.456721
    22962.112500       0.449456
    23014.959700       0.442142
    23068.050700       0.434781
    23121.387300       0.427375
    23174.971000       0.419925
    23228.803700       0.412434
    23282.887100       0.404903
    23337.222900       0.397333
    23391.812900       0.389727
    23446.658900       0.382087
    23501.762600       0.374415
    23557.126000       0.366713
    23612.750900       0.358982
    23668.639100       0.351226
    23724.792400       0.343447
    23781.212800       0.335646
    23837.902300       0.327826
    23894.862600       0.319991
    23952.095800       0.312141
    24009.603800       0.304281
    24067.388700       0.296411
    24125.452400       0.288537
    24183.796900       0.280659
    24242.424200       0.272781
    24301.336600       0.264906
    24360.535900       0.257036
    24420.024400       0.249176
    24479.804200       0.241328
    24539.877300       0.233495
    24600.246000       0.225681
    24660.912500       0.217889
    24721.878900       0.210122
    24783.147500       0.202384
    24844.720500       0.194679
    24906.600200       0.187010
    24968.789000       0.179381
    25031.289100       0.171797
    25094.102900       0.164259
    25157.232700       0.156774
    25220.681000       0.149345
    25284.450100       0.141976
    25348.542500       0.134671
    25412.960600       0.127434
    25477.707000       0.120271
