17,   17, MVIRI VIS channel from srf_MET5_1993123_1993124_1801-Release_S10EL_10.dat
Number of data points:
806
Wavenumber (cm-1)   Filter response
     8350.730700       0.000000
     8357.710000       0.000000
     8364.701000       0.000000
     8371.703600       0.000001
     8378.718100       0.000004
     8385.744200       0.000009
     8392.782200       0.000016
     8399.832000       0.000026
     8406.893700       0.000040
     8413.967200       0.000058
     8421.052600       0.000080
     8428.150000       0.000108
     8435.259400       0.000141
     8442.380800       0.000180
     8449.514200       0.000225
     8456.659600       0.000276
     8463.817200       0.000335
     8470.986900       0.000402
     8478.168700       0.000476
     8485.362700       0.000558
     8492.569000       0.000648
     8499.787500       0.000748
     8507.018300       0.000856
     8514.261400       0.000974
     8521.516800       0.001102
     8528.784600       0.001240
     8536.064900       0.001387
     8543.357500       0.001546
     8550.662700       0.001715
     8557.980300       0.001895
     8565.310500       0.002087
     8572.653200       0.002290
     8580.008600       0.002505
     8587.376600       0.002731
     8594.757200       0.002970
     8602.150500       0.003221
     8609.556600       0.003485
     8616.975400       0.003761
     8624.407100       0.004051
     8631.851500       0.004354
     8639.308900       0.004669
     8646.779100       0.004999
     8654.262200       0.005342
     8661.758300       0.005699
     8669.267400       0.006070
     8676.789600       0.006454
     8684.324800       0.006854
     8691.873100       0.007267
     8699.434500       0.007696
     8707.009100       0.008139
     8714.596900       0.008597
     8722.198000       0.009070
     8729.812300       0.009558
     8737.439900       0.010061
     8745.080900       0.010580
     8752.735200       0.011114
     8760.403000       0.011664
     8768.084200       0.012230
     8775.778900       0.012811
     8783.487000       0.013409
     8791.208800       0.014023
     8798.944100       0.014653
     8806.693100       0.015300
     8814.455700       0.015963
     8822.232000       0.016642
     8830.022100       0.017339
     8837.825900       0.018052
     8845.643500       0.018782
     8853.475000       0.019529
     8861.320300       0.020294
     8869.179600       0.021076
     8877.052800       0.021875
     8884.940000       0.022691
     8892.841300       0.023526
     8900.756600       0.024378
     8908.686000       0.025247
     8916.629500       0.026135
     8924.587200       0.027041
     8932.559200       0.027965
     8940.545400       0.028907
     8948.545900       0.029868
     8956.560700       0.030846
     8964.589900       0.031844
     8972.633500       0.032860
     8980.691500       0.033895
     8988.764000       0.034949
     8996.851100       0.036022
     9004.952700       0.037114
     9013.068900       0.038225
     9021.199800       0.039355
     9029.345400       0.040504
     9037.505600       0.041674
     9045.680700       0.042862
     9053.870500       0.044070
     9062.075200       0.045299
     9070.294800       0.046547
     9078.529300       0.047815
     9086.778700       0.049103
     9095.043200       0.050411
     9103.322700       0.051739
     9111.617300       0.053088
     9119.927000       0.054457
     9128.251900       0.055847
     9136.592100       0.057258
     9144.947400       0.058689
     9153.318100       0.060141
     9161.704100       0.061614
     9170.105500       0.063107
     9178.522300       0.064622
     9186.954500       0.066159
     9195.402300       0.067716
     9203.865600       0.069295
     9212.344500       0.070895
     9220.839100       0.072517
     9229.349300       0.074160
     9237.875300       0.075826
     9246.417000       0.077512
     9254.974500       0.079221
     9263.547900       0.080952
     9272.137200       0.082704
     9280.742500       0.084479
     9289.363700       0.086276
     9298.000900       0.088095
     9306.654300       0.089937
     9315.323700       0.091801
     9324.009300       0.093687
     9332.711200       0.095596
     9341.429200       0.097528
     9350.163600       0.099482
     9358.914400       0.101459
     9367.681500       0.103458
     9376.465100       0.105481
     9385.265100       0.107526
     9394.081700       0.109595
     9402.914900       0.111686
     9411.764700       0.113800
     9420.631200       0.115938
     9429.514400       0.118098
     9438.414300       0.120282
     9447.331100       0.122488
     9456.264800       0.124719
     9465.215300       0.126972
     9474.182900       0.129249
     9483.167400       0.131549
     9492.169000       0.133872
     9501.187600       0.136219
     9510.223500       0.138589
     9519.276500       0.140983
     9528.346800       0.143400
     9537.434400       0.145840
     9546.539400       0.148304
     9555.661700       0.150792
     9564.801500       0.153302
     9573.958800       0.155837
     9583.133700       0.158395
     9592.326100       0.160976
     9601.536200       0.163581
     9610.764100       0.166209
     9620.009600       0.168860
     9629.273000       0.171535
     9638.554200       0.174233
     9647.853400       0.176955
     9657.170400       0.179700
     9666.505600       0.182468
     9675.858700       0.185260
     9685.230000       0.188074
     9694.619500       0.190912
     9704.027200       0.193773
     9713.453100       0.196657
     9722.897400       0.199564
     9732.360100       0.202494
     9741.841200       0.205447
     9751.340800       0.208422
     9760.859000       0.211420
     9770.395700       0.214441
     9779.951100       0.217485
     9789.525200       0.220551
     9799.118100       0.223639
     9808.729800       0.226750
     9818.360300       0.229883
     9828.009800       0.233038
     9837.678300       0.236215
     9847.365800       0.239414
     9857.072400       0.242634
     9866.798200       0.245877
     9876.543200       0.249140
     9886.307500       0.252426
     9896.091000       0.255733
     9905.894000       0.259060
     9915.716400       0.262409
     9925.558300       0.265779
     9935.419800       0.269169
     9945.300800       0.272580
     9955.201600       0.276012
     9965.122100       0.279464
     9975.062300       0.282935
     9985.022500       0.286427
     9995.002500       0.289939
    10005.002500       0.293470
    10015.022500       0.297021
    10025.062700       0.300591
    10035.122900       0.304180
    10045.203400       0.307788
    10055.304200       0.311414
    10065.425300       0.315059
    10075.566800       0.318722
    10085.728700       0.322404
    10095.911200       0.326103
    10106.114200       0.329820
    10116.337900       0.333554
    10126.582300       0.337306
    10136.847400       0.341074
    10147.133400       0.344859
    10157.440300       0.348661
    10167.768200       0.352479
    10178.117000       0.356313
    10188.487000       0.360162
    10198.878100       0.364028
    10209.290500       0.367908
    10219.724100       0.371803
    10230.179000       0.375714
    10240.655400       0.379639
    10251.153300       0.383577
    10261.672700       0.387530
    10272.213700       0.391497
    10282.776300       0.395476
    10293.360800       0.399470
    10303.967000       0.403475
    10314.595200       0.407493
    10325.245200       0.411524
    10335.917300       0.415566
    10346.611500       0.419620
    10357.327800       0.423686
    10368.066400       0.427762
    10378.827200       0.431849
    10389.610400       0.435946
    10400.416000       0.440054
    10411.244100       0.444171
    10422.094800       0.448297
    10432.968200       0.452433
    10443.864200       0.456577
    10454.783100       0.460730
    10465.724800       0.464891
    10476.689400       0.469059
    10487.677000       0.473235
    10498.687700       0.477418
    10509.721500       0.481608
    10520.778500       0.485804
    10531.858900       0.490006
    10542.962600       0.494214
    10554.089700       0.498427
    10565.240400       0.502644
    10576.414600       0.506867
    10587.612500       0.511093
    10598.834100       0.515324
    10610.079600       0.519558
    10621.348900       0.523795
    10632.642200       0.528035
    10643.959600       0.532277
    10655.301000       0.536521
    10666.666700       0.540767
    10678.056600       0.545014
    10689.470900       0.549262
    10700.909600       0.553510
    10712.372800       0.557758
    10723.860600       0.562006
    10735.373100       0.566254
    10746.910300       0.570500
    10758.472300       0.574745
    10770.059200       0.578987
    10781.671200       0.583228
    10793.308100       0.587466
    10804.970300       0.591701
    10816.657700       0.595932
    10828.370300       0.600160
    10840.108400       0.604383
    10851.871900       0.608602
    10863.661100       0.612816
    10875.475800       0.617024
    10887.316300       0.621227
    10899.182600       0.625423
    10911.074700       0.629613
    10922.992900       0.633795
    10934.937100       0.637970
    10946.907500       0.642138
    10958.904100       0.646297
    10970.927000       0.650448
    10982.976400       0.654589
    10995.052200       0.658721
    11007.154700       0.662844
    11019.283700       0.666956
    11031.439600       0.671058
    11043.622300       0.675148
    11055.832000       0.679227
    11068.068600       0.683295
    11080.332400       0.687350
    11092.623400       0.691393
    11104.941700       0.695422
    11117.287400       0.699439
    11129.660500       0.703441
    11142.061300       0.707430
    11154.489700       0.711404
    11166.945800       0.715363
    11179.429800       0.719307
    11191.941800       0.723235
    11204.481800       0.727148
    11217.049900       0.731043
    11229.646300       0.734922
    11242.270900       0.738784
    11254.924000       0.742628
    11267.605600       0.746455
    11280.315800       0.750263
    11293.054800       0.754052
    11305.822500       0.757822
    11318.619100       0.761573
    11331.444800       0.765305
    11344.299500       0.769016
    11357.183400       0.772707
    11370.096600       0.776377
    11383.039300       0.780026
    11396.011400       0.783653
    11409.013100       0.787258
    11422.044500       0.790842
    11435.105800       0.794403
    11448.196900       0.797940
    11461.318100       0.801455
    11474.469300       0.804946
    11487.650800       0.808414
    11500.862600       0.811857
    11514.104800       0.815276
    11527.377500       0.818670
    11540.680900       0.822039
    11554.015000       0.825383
    11567.380000       0.828701
    11580.775900       0.831993
    11594.202900       0.835258
    11607.661100       0.838497
    11621.150500       0.841709
    11634.671300       0.844894
    11648.223600       0.848052
    11661.807600       0.851182
    11675.423200       0.854284
    11689.070700       0.857357
    11702.750100       0.860402
    11716.461600       0.863419
    11730.205300       0.866406
    11743.981200       0.869364
    11757.789500       0.872293
    11771.630400       0.875191
    11785.503800       0.878060
    11799.410000       0.880899
    11813.349100       0.883707
    11827.321100       0.886484
    11841.326200       0.889231
    11855.364600       0.891946
    11869.436200       0.894630
    11883.541300       0.897283
    11897.680000       0.899904
    11911.852300       0.902493
    11926.058400       0.905050
    11940.298500       0.907575
    11954.572600       0.910067
    11968.880900       0.912527
    11983.223500       0.914954
    11997.600500       0.917348
    12012.012000       0.919709
    12026.458200       0.922037
    12040.939200       0.924331
    12055.455100       0.926592
    12070.006000       0.928820
    12084.592100       0.931013
    12099.213600       0.933173
    12113.870400       0.935298
    12128.562800       0.937390
    12143.290800       0.939448
    12158.054700       0.941471
    12172.854500       0.943459
    12187.690400       0.945414
    12202.562500       0.947333
    12217.471000       0.949219
    12232.415900       0.951069
    12247.397400       0.952885
    12262.415700       0.954665
    12277.470800       0.956412
    12292.563000       0.958123
    12307.692300       0.959799
    12322.858900       0.961440
    12338.062900       0.963046
    12353.304500       0.964618
    12368.583800       0.966154
    12383.900900       0.967655
    12399.256000       0.969121
    12414.649300       0.970552
    12430.080800       0.971948
    12445.550700       0.973309
    12461.059200       0.974635
    12476.606400       0.975926
    12492.192400       0.977183
    12507.817400       0.978404
    12523.481500       0.979590
    12539.185000       0.980742
    12554.927800       0.981859
    12570.710200       0.982942
    12586.532400       0.983989
    12602.394500       0.985003
    12618.296500       0.985982
    12634.238800       0.986926
    12650.221400       0.987836
    12666.244500       0.988713
    12682.308200       0.989555
    12698.412700       0.990363
    12714.558200       0.991138
    12730.744700       0.991878
    12746.972600       0.992586
    12763.241900       0.993259
    12779.552700       0.993900
    12795.905300       0.994508
    12812.299800       0.995082
    12828.736400       0.995624
    12845.215200       0.996133
    12861.736300       0.996610
    12878.300100       0.997054
    12894.906500       0.997467
    12911.555800       0.997847
    12928.248200       0.998196
    12944.983800       0.998513
    12961.762800       0.998799
    12978.585300       0.999054
    12995.451600       0.999278
    13012.361700       0.999471
    13029.316000       0.999634
    13046.314400       0.999766
    13063.357300       0.999869
    13080.444700       0.999942
    13097.576900       0.999986
    13114.754100       1.000000
    13131.976400       0.999985
    13149.243900       0.999942
    13166.556900       0.999870
    13183.915600       0.999770
    13201.320100       0.999643
    13218.770700       0.999487
    13236.267400       0.999305
    13253.810500       0.999095
    13271.400100       0.998858
    13289.036500       0.998596
    13306.719900       0.998307
    13324.450400       0.997992
    13342.228200       0.997652
    13360.053400       0.997286
    13377.926400       0.996896
    13395.847300       0.996481
    13413.816200       0.996042
    13431.833400       0.995579
    13449.899100       0.995093
    13468.013500       0.994583
    13486.176700       0.994051
    13504.388900       0.993496
    13522.650400       0.992919
    13540.961400       0.992320
    13559.322000       0.991700
    13577.732500       0.991059
    13596.193100       0.990397
    13614.703900       0.989715
    13633.265200       0.989013
    13651.877100       0.988291
    13670.540000       0.987550
    13689.253900       0.986790
    13708.019200       0.986012
    13726.836000       0.985216
    13745.704500       0.984402
    13764.624900       0.983571
    13783.597500       0.982723
    13802.622500       0.981858
    13821.700100       0.980978
    13840.830400       0.980081
    13860.013900       0.979170
    13879.250500       0.978243
    13898.540700       0.977303
    13917.884500       0.976348
    13937.282200       0.975379
    13956.734100       0.974397
    13976.240400       0.973403
    13995.801300       0.972396
    14015.417000       0.971377
    14035.087700       0.970346
    14054.813800       0.969304
    14074.595400       0.968251
    14094.432700       0.967189
    14114.326000       0.966116
    14134.275600       0.965033
    14154.281700       0.963942
    14174.344400       0.962842
    14194.464200       0.961734
    14214.641100       0.960617
    14234.875400       0.959494
    14255.167500       0.958363
    14275.517500       0.957226
    14295.925700       0.956083
    14316.392300       0.954934
    14336.917600       0.953779
    14357.501800       0.952620
    14378.145200       0.951456
    14398.848100       0.950289
    14419.610700       0.949117
    14440.433200       0.947942
    14461.316000       0.946765
    14482.259200       0.945585
    14503.263200       0.944402
    14524.328200       0.943219
    14545.454500       0.942034
    14566.642400       0.940848
    14587.892000       0.939662
    14609.203800       0.938476
    14630.577900       0.937290
    14652.014700       0.936105
    14673.514300       0.934921
    14695.077100       0.933738
    14716.703500       0.932558
    14738.393500       0.931380
    14760.147600       0.930204
    14781.966000       0.929032
    14803.849000       0.927863
    14825.796900       0.926698
    14847.809900       0.925537
    14869.888500       0.924380
    14892.032800       0.923229
    14914.243100       0.922082
    14936.519800       0.920942
    14958.863100       0.919807
    14981.273400       0.918678
    15003.750900       0.917556
    15026.296000       0.916441
    15048.909000       0.915333
    15071.590100       0.914233
    15094.339600       0.913141
    15117.158000       0.912057
    15140.045400       0.910981
    15163.002300       0.909914
    15186.028900       0.908857
    15209.125500       0.907808
    15232.292500       0.906770
    15255.530100       0.905741
    15278.838800       0.904723
    15302.218800       0.903715
    15325.670500       0.902718
    15349.194200       0.901732
    15372.790200       0.900758
    15396.458800       0.899795
    15420.200500       0.898843
    15444.015400       0.897904
    15467.904100       0.896977
    15491.866800       0.896062
    15515.903800       0.895160
    15540.015500       0.894271
    15564.202300       0.893395
    15588.464500       0.892532
    15612.802500       0.891683
    15637.216600       0.890847
    15661.707100       0.890025
    15686.274500       0.889217
    15710.919100       0.888423
    15735.641200       0.887643
    15760.441300       0.886878
    15785.319700       0.886127
    15810.276700       0.885390
    15835.312700       0.884669
    15860.428200       0.883962
    15885.623500       0.883270
    15910.899000       0.882593
    15936.255000       0.881931
    15961.691900       0.881284
    15987.210200       0.880652
    16012.810200       0.880036
    16038.492400       0.879435
    16064.257000       0.878849
    16090.104600       0.878278
    16116.035500       0.877723
    16142.050000       0.877183
    16168.148700       0.876659
    16194.332000       0.876150
    16220.600200       0.875656
    16246.953700       0.875178
    16273.393000       0.874714
    16299.918500       0.874266
    16326.530600       0.873833
    16353.229800       0.873415
    16380.016400       0.873012
    16406.890900       0.872624
    16433.853700       0.872251
    16460.905300       0.871892
    16488.046200       0.871548
    16515.276600       0.871218
    16542.597200       0.870902
    16570.008300       0.870601
    16597.510400       0.870313
    16625.103900       0.870039
    16652.789300       0.869779
    16680.567100       0.869532
    16708.437800       0.869299
    16736.401700       0.869078
    16764.459300       0.868870
    16792.611300       0.868674
    16820.857900       0.868491
    16849.199700       0.868319
    16877.637100       0.868160
    16906.170800       0.868011
    16934.801000       0.867874
    16963.528400       0.867748
    16992.353400       0.867632
    17021.276600       0.867526
    17050.298400       0.867430
    17079.419300       0.867344
    17108.639900       0.867267
    17137.960600       0.867198
    17167.382000       0.867138
    17196.904600       0.867086
    17226.528900       0.867042
    17256.255400       0.867004
    17286.084700       0.866974
    17316.017300       0.866950
    17346.053800       0.866931
    17376.194600       0.866919
    17406.440400       0.866911
    17436.791600       0.866907
    17467.248900       0.866908
    17497.812800       0.866912
    17528.483800       0.866919
    17559.262500       0.866928
    17590.149500       0.866940
    17621.145400       0.866953
    17652.250700       0.866966
    17683.466000       0.866980
    17714.791900       0.866994
    17746.228900       0.867007
    17777.777800       0.867018
    17809.439000       0.867028
    17841.213200       0.867034
    17873.101000       0.867038
    17905.103000       0.867037
    17937.219700       0.867032
    17969.451900       0.867021
    18001.800200       0.867005
    18034.265100       0.866982
    18066.847300       0.866952
    18099.547500       0.866914
    18132.366300       0.866867
    18165.304300       0.866811
    18198.362100       0.866745
    18231.540600       0.866668
    18264.840200       0.866580
    18298.261700       0.866479
    18331.805700       0.866365
    18365.472900       0.866238
    18399.264000       0.866095
    18433.179700       0.865938
    18467.220700       0.865764
    18501.387600       0.865574
    18535.681200       0.865365
    18570.102100       0.865138
    18604.651200       0.864892
    18639.329000       0.864626
    18674.136300       0.864338
    18709.073900       0.864029
    18744.142500       0.863696
    18779.342700       0.863341
    18814.675400       0.862961
    18850.141400       0.862555
    18885.741300       0.862123
    18921.475900       0.861665
    18957.346000       0.861178
    18993.352300       0.860662
    19029.495700       0.860117
    19065.776900       0.859541
    19102.196800       0.858933
    19138.756000       0.858293
    19175.455400       0.857620
    19212.295900       0.856912
    19249.278200       0.856169
    19286.403100       0.855390
    19323.671500       0.854573
    19361.084200       0.853719
    19398.642100       0.852825
    19436.346000       0.851892
    19474.196700       0.850918
    19512.195100       0.849901
    19550.342100       0.848842
    19588.638600       0.847740
    19627.085400       0.846592
    19665.683400       0.845399
    19704.433500       0.844159
    19743.336600       0.842872
    19782.393700       0.841536
    19821.605600       0.840151
    19860.973200       0.838715
    19900.497500       0.837227
    19940.179500       0.835688
    19980.020000       0.834094
    20020.020000       0.832447
    20060.180500       0.830744
    20100.502500       0.828985
    20140.986900       0.827169
    20181.634700       0.825294
    20222.446900       0.823361
    20263.424500       0.821367
    20304.568500       0.819313
    20345.880000       0.817196
    20387.359800       0.815017
    20429.009200       0.812774
    20470.829100       0.810466
    20512.820500       0.808092
    20554.984600       0.805652
    20597.322300       0.803145
    20639.834900       0.800569
    20682.523300       0.797923
    20725.388600       0.795208
    20768.432000       0.792421
    20811.654500       0.789563
    20855.057400       0.786632
    20898.641600       0.783627
    20942.408400       0.780548
    20986.358900       0.777393
    21030.494200       0.774162
    21074.815600       0.770854
    21119.324200       0.767468
    21164.021200       0.764004
    21208.907700       0.760460
    21253.985100       0.756837
    21299.254500       0.753132
    21344.717200       0.749345
    21390.374300       0.745477
    21436.227200       0.741525
    21482.277100       0.737489
    21528.525300       0.733369
    21574.973000       0.729163
    21621.621600       0.724872
    21668.472400       0.720494
    21715.526600       0.716029
    21762.785600       0.711476
    21810.250800       0.706835
    21857.923500       0.702105
    21905.805000       0.697285
    21953.896800       0.692376
    22002.200200       0.687375
    22050.716600       0.682284
    22099.447500       0.677101
    22148.394200       0.671827
    22197.558300       0.666460
    22246.941000       0.661000
    22296.544000       0.655447
    22346.368700       0.649800
    22396.416600       0.644059
    22446.689100       0.638224
    22497.187900       0.632295
    22547.914300       0.626271
    22598.870100       0.620151
    22650.056600       0.613937
    22701.475600       0.607626
    22753.128600       0.601221
    22805.017100       0.594719
    22857.142900       0.588122
    22909.507400       0.581429
    22962.112500       0.574640
    23014.959700       0.567755
    23068.050700       0.560773
    23121.387300       0.553696
    23174.971000       0.546523
    23228.803700       0.539255
    23282.887100       0.531890
    23337.222900       0.524431
    23391.812900       0.516876
    23446.658900       0.509226
    23501.762600       0.501482
    23557.126000       0.493643
    23612.750900       0.485710
    23668.639100       0.477684
    23724.792400       0.469565
    23781.212800       0.461353
    23837.902300       0.453048
    23894.862600       0.444653
    23952.095800       0.436166
    24009.603800       0.427589
    24067.388700       0.418922
    24125.452400       0.410167
    24183.796900       0.401324
    24242.424200       0.392392
    24301.336600       0.383375
    24360.535900       0.374272
    24420.024400       0.365085
    24479.804200       0.355813
    24539.877300       0.346460
    24600.246000       0.337025
    24660.912500       0.327509
    24721.878900       0.317914
    24783.147500       0.308242
    24844.720500       0.298493
    24906.600200       0.288668
    24968.789000       0.278770
    25031.289100       0.268800
    25094.102900       0.258758
    25157.232700       0.248648
    25220.681000       0.238469
    25284.450100       0.228225
    25348.542500       0.217916
    25412.960600       0.207545
    25477.707000       0.197113
