 1    ,MTSAT-2 Visible Band
Number of data points:
280
Wavenumber (cm-1)   Filter response
    12210.012200       0.000000
    12224.938900       0.000000
    12239.902100       0.000000
    12254.902000       0.022000
    12269.938700       0.026000
    12285.012300       0.030000
    12300.123000       0.035000
    12315.270900       0.042000
    12330.456200       0.050000
    12345.679000       0.057000
    12360.939400       0.067000
    12376.237600       0.089000
    12391.573700       0.097000
    12406.947900       0.118000
    12422.360200       0.139000
    12437.810900       0.165000
    12453.300100       0.191000
    12468.827900       0.245000
    12484.394500       0.272000
    12500.000000       0.300000
    12515.644600       0.338000
    12531.328300       0.367000
    12547.051400       0.402000
    12562.814100       0.433000
    12578.616400       0.470000
    12594.458400       0.485000
    12610.340500       0.496000
    12626.262600       0.506000
    12642.225000       0.517000
    12658.227800       0.522000
    12674.271200       0.525000
    12690.355300       0.531000
    12706.480300       0.535000
    12722.646300       0.542000
    12738.853500       0.547000
    12755.102000       0.555000
    12771.392100       0.566000
    12787.723800       0.577000
    12804.097300       0.584000
    12820.512800       0.593000
    12836.970500       0.615000
    12853.470400       0.628000
    12870.012900       0.648000
    12886.597900       0.669000
    12903.225800       0.705000
    12919.896600       0.715000
    12936.610600       0.734000
    12953.367900       0.755000
    12970.168600       0.791000
    12987.013000       0.819000
    13003.901200       0.835000
    13020.833300       0.857000
    13037.809600       0.887000
    13054.830300       0.901000
    13071.895400       0.920000
    13089.005200       0.936000
    13106.159900       0.951000
    13123.359600       0.968000
    13140.604500       0.978000
    13157.894700       0.982000
    13175.230600       0.982000
    13192.612100       0.989000
    13210.039600       0.993000
    13227.513200       0.991000
    13245.033100       0.988000
    13262.599500       0.986000
    13280.212500       0.988000
    13297.872300       0.987000
    13315.579200       0.980000
    13333.333300       0.974000
    13351.134800       0.973000
    13368.984000       0.973000
    13386.880900       0.969000
    13404.825700       0.963000
    13422.818800       0.961000
    13440.860200       0.964000
    13458.950200       0.965000
    13477.088900       0.966000
    13495.276700       0.967000
    13513.513500       0.970000
    13531.799700       0.974000
    13550.135500       0.979000
    13568.521000       0.983000
    13586.956500       0.986000
    13605.442200       0.985000
    13623.978200       0.980000
    13642.564800       0.978000
    13661.202200       0.981000
    13679.890600       0.984000
    13698.630100       0.988000
    13717.421100       0.992000
    13736.263700       0.994000
    13755.158200       0.993000
    13774.104700       0.993000
    13793.103400       0.992000
    13812.154700       0.992000
    13831.258600       0.995000
    13850.415500       0.998000
    13869.625500       0.998000
    13888.888900       0.995000
    13908.205800       0.998000
    13927.576600       1.000000
    13947.001400       1.000000
    13966.480400       0.995000
    13986.014000       0.990000
    14005.602200       0.985000
    14025.245400       0.983000
    14044.943800       0.984000
    14064.697600       0.983000
    14084.507000       0.982000
    14104.372400       0.982000
    14124.293800       0.980000
    14144.271600       0.979000
    14164.305900       0.976000
    14184.397200       0.974000
    14204.545500       0.975000
    14224.751100       0.973000
    14245.014200       0.970000
    14265.335200       0.968000
    14285.714300       0.969000
    14306.151600       0.970000
    14326.647600       0.970000
    14347.202300       0.970000
    14367.816100       0.969000
    14388.489200       0.971000
    14409.221900       0.974000
    14430.014400       0.974000
    14450.867100       0.972000
    14471.780000       0.973000
    14492.753600       0.975000
    14513.788100       0.977000
    14534.883700       0.977000
    14556.040800       0.977000
    14577.259500       0.974000
    14598.540100       0.972000
    14619.883000       0.969000
    14641.288400       0.966000
    14662.756600       0.967000
    14684.287800       0.967000
    14705.882400       0.966000
    14727.540500       0.965000
    14749.262500       0.964000
    14771.048700       0.960000
    14792.899400       0.953000
    14814.814800       0.951000
    14836.795300       0.952000
    14858.841000       0.951000
    14880.952400       0.947000
    14903.129700       0.945000
    14925.373100       0.944000
    14947.683100       0.944000
    14970.059900       0.944000
    14992.503700       0.943000
    15015.015000       0.942000
    15037.594000       0.942000
    15060.241000       0.941000
    15082.956300       0.941000
    15105.740200       0.941000
    15128.593000       0.942000
    15151.515200       0.944000
    15174.506800       0.946000
    15197.568400       0.943000
    15220.700200       0.941000
    15243.902400       0.940000
    15267.175600       0.937000
    15290.519900       0.935000
    15313.935700       0.932000
    15337.423300       0.928000
    15360.983100       0.926000
    15384.615400       0.924000
    15408.320500       0.922000
    15432.098800       0.919000
    15455.950500       0.917000
    15479.876200       0.915000
    15503.876000       0.915000
    15527.950300       0.910000
    15552.099500       0.907000
    15576.324000       0.906000
    15600.624000       0.905000
    15625.000000       0.903000
    15649.452300       0.903000
    15673.981200       0.904000
    15698.587100       0.904000
    15723.270400       0.903000
    15748.031500       0.901000
    15772.870700       0.898000
    15797.788300       0.898000
    15822.784800       0.900000
    15847.860500       0.899000
    15873.015900       0.898000
    15898.251200       0.897000
    15923.566900       0.899000
    15948.963300       0.898000
    15974.440900       0.895000
    16000.000000       0.892000
    16025.641000       0.889000
    16051.364400       0.887000
    16077.170400       0.883000
    16103.059600       0.879000
    16129.032300       0.876000
    16155.088900       0.875000
    16181.229800       0.875000
    16207.455400       0.875000
    16233.766200       0.877000
    16260.162600       0.877000
    16286.645000       0.874000
    16313.213700       0.870000
    16339.869300       0.865000
    16366.612100       0.862000
    16393.442600       0.861000
    16420.361200       0.861000
    16447.368400       0.861000
    16474.464600       0.862000
    16501.650200       0.861000
    16528.925600       0.860000
    16556.291400       0.859000
    16583.747900       0.859000
    16611.295700       0.859000
    16638.935100       0.858000
    16666.666700       0.858000
    16694.490800       0.859000
    16722.408000       0.860000
    16750.418800       0.858000
    16778.523500       0.854000
    16806.722700       0.850000
    16835.016800       0.844000
    16863.406400       0.838000
    16891.891900       0.829000
    16920.473800       0.822000
    16949.152500       0.817000
    16977.928700       0.805000
    17006.802700       0.796000
    17035.775100       0.791000
    17064.846400       0.785000
    17094.017100       0.776000
    17123.287700       0.768000
    17152.658700       0.761000
    17182.130600       0.752000
    17211.704000       0.746000
    17241.379300       0.742000
    17271.157200       0.739000
    17301.038100       0.740000
    17331.022500       0.739000
    17361.111100       0.739000
    17391.304300       0.733000
    17421.602800       0.728000
    17452.007000       0.723000
    17482.517500       0.718000
    17513.134900       0.709000
    17543.859600       0.695000
    17574.692400       0.681000
    17605.633800       0.642000
    17636.684300       0.621000
    17667.844500       0.588000
    17699.115000       0.557000
    17730.496500       0.496000
    17761.989300       0.452000
    17793.594300       0.431000
    17825.311900       0.389000
    17857.142900       0.365000
    17889.087700       0.336000
    17921.147000       0.308000
    17953.321400       0.281000
    17985.611500       0.264000
    18018.018000       0.230000
    18050.541500       0.220000
    18083.182600       0.205000
    18115.942000       0.196000
    18148.820300       0.182000
    18181.818200       0.172000
    18214.936200       0.158000
    18248.175200       0.151000
    18281.535600       0.142000
    18315.018300       0.129000
    18348.623900       0.114000
    18382.352900       0.103000
    18416.206300       0.085000
    18450.184500       0.062000
    18484.288400       0.043000
    18518.518500       0.029000
