16,   16, MVIRI VIS channel from srf_MET2_1984033_1984034_1801-Release_S10EL_10.dat
Number of data points:
730
Wavenumber (cm-1)   Filter response
     8916.629500       0.000000
     8924.587200       0.000000
     8932.559200       0.000002
     8940.545400       0.000011
     8948.545900       0.000032
     8956.560700       0.000068
     8964.589900       0.000125
     8972.633500       0.000206
     8980.691500       0.000315
     8988.764000       0.000457
     8996.851100       0.000634
     9004.952700       0.000850
     9013.068900       0.001108
     9021.199800       0.001413
     9029.345400       0.001766
     9037.505600       0.002170
     9045.680700       0.002629
     9053.870500       0.003145
     9062.075200       0.003720
     9070.294800       0.004357
     9078.529300       0.005057
     9086.778700       0.005824
     9095.043200       0.006659
     9103.322700       0.007563
     9111.617300       0.008539
     9119.927000       0.009588
     9128.251900       0.010711
     9136.592100       0.011911
     9144.947400       0.013188
     9153.318100       0.014544
     9161.704100       0.015979
     9170.105500       0.017495
     9178.522300       0.019092
     9186.954500       0.020772
     9195.402300       0.022535
     9203.865600       0.024382
     9212.344500       0.026313
     9220.839100       0.028328
     9229.349300       0.030429
     9237.875300       0.032615
     9246.417000       0.034887
     9254.974500       0.037245
     9263.547900       0.039689
     9272.137200       0.042218
     9280.742500       0.044834
     9289.363700       0.047535
     9298.000900       0.050322
     9306.654300       0.053195
     9315.323700       0.056153
     9324.009300       0.059195
     9332.711200       0.062323
     9341.429200       0.065533
     9350.163600       0.068828
     9358.914400       0.072205
     9367.681500       0.075665
     9376.465100       0.079206
     9385.265100       0.082829
     9394.081700       0.086531
     9402.914900       0.090313
     9411.764700       0.094174
     9420.631200       0.098113
     9429.514400       0.102129
     9438.414300       0.106220
     9447.331100       0.110387
     9456.264800       0.114628
     9465.215300       0.118942
     9474.182900       0.123327
     9483.167400       0.127785
     9492.169000       0.132311
     9501.187600       0.136906
     9510.223500       0.141570
     9519.276500       0.146299
     9528.346800       0.151093
     9537.434400       0.155952
     9546.539400       0.160873
     9555.661700       0.165856
     9564.801500       0.170899
     9573.958800       0.176001
     9583.133700       0.181161
     9592.326100       0.186376
     9601.536200       0.191647
     9610.764100       0.196971
     9620.009600       0.202348
     9629.273000       0.207776
     9638.554200       0.213253
     9647.853400       0.218779
     9657.170400       0.224351
     9666.505600       0.229969
     9675.858700       0.235631
     9685.230000       0.241334
     9694.619500       0.247080
     9704.027200       0.252865
     9713.453100       0.258689
     9722.897400       0.264550
     9732.360100       0.270446
     9741.841200       0.276377
     9751.340800       0.282339
     9760.859000       0.288334
     9770.395700       0.294359
     9779.951100       0.300411
     9789.525200       0.306491
     9799.118100       0.312597
     9808.729800       0.318727
     9818.360300       0.324880
     9828.009800       0.331054
     9837.678300       0.337249
     9847.365800       0.343462
     9857.072400       0.349693
     9866.798200       0.355940
     9876.543200       0.362201
     9886.307500       0.368476
     9896.091000       0.374763
     9905.894000       0.381060
     9915.716400       0.387367
     9925.558300       0.393681
     9935.419800       0.400003
     9945.300800       0.406330
     9955.201600       0.412661
     9965.122100       0.418996
     9975.062300       0.425331
     9985.022500       0.431668
     9995.002500       0.438004
    10005.002500       0.444337
    10015.022500       0.450667
    10025.062700       0.456993
    10035.122900       0.463313
    10045.203400       0.469627
    10055.304200       0.475932
    10065.425300       0.482229
    10075.566800       0.488515
    10085.728700       0.494791
    10095.911200       0.501054
    10106.114200       0.507303
    10116.337900       0.513538
    10126.582300       0.519757
    10136.847400       0.525960
    10147.133400       0.532146
    10157.440300       0.538312
    10167.768200       0.544459
    10178.117000       0.550586
    10188.487000       0.556691
    10198.878100       0.562774
    10209.290500       0.568833
    10219.724100       0.574868
    10230.179000       0.580878
    10240.655400       0.586862
    10251.153300       0.592819
    10261.672700       0.598748
    10272.213700       0.604649
    10282.776300       0.610520
    10293.360800       0.616362
    10303.967000       0.622172
    10314.595200       0.627951
    10325.245200       0.633697
    10335.917300       0.639410
    10346.611500       0.645089
    10357.327800       0.650734
    10368.066400       0.656343
    10378.827200       0.661917
    10389.610400       0.667454
    10400.416000       0.672954
    10411.244100       0.678416
    10422.094800       0.683840
    10432.968200       0.689225
    10443.864200       0.694570
    10454.783100       0.699876
    10465.724800       0.705140
    10476.689400       0.710364
    10487.677000       0.715546
    10498.687700       0.720686
    10509.721500       0.725783
    10520.778500       0.730838
    10531.858900       0.735849
    10542.962600       0.740816
    10554.089700       0.745739
    10565.240400       0.750617
    10576.414600       0.755450
    10587.612500       0.760237
    10598.834100       0.764980
    10610.079600       0.769675
    10621.348900       0.774325
    10632.642200       0.778927
    10643.959600       0.783483
    10655.301000       0.787992
    10666.666700       0.792453
    10678.056600       0.796866
    10689.470900       0.801231
    10700.909600       0.805548
    10712.372800       0.809816
    10723.860600       0.814036
    10735.373100       0.818207
    10746.910300       0.822329
    10758.472300       0.826401
    10770.059200       0.830425
    10781.671200       0.834399
    10793.308100       0.838323
    10804.970300       0.842198
    10816.657700       0.846023
    10828.370300       0.849798
    10840.108400       0.853523
    10851.871900       0.857198
    10863.661100       0.860824
    10875.475800       0.864399
    10887.316300       0.867924
    10899.182600       0.871399
    10911.074700       0.874824
    10922.992900       0.878199
    10934.937100       0.881523
    10946.907500       0.884798
    10958.904100       0.888022
    10970.927000       0.891197
    10982.976400       0.894322
    10995.052200       0.897396
    11007.154700       0.900421
    11019.283700       0.903396
    11031.439600       0.906322
    11043.622300       0.909198
    11055.832000       0.912025
    11068.068600       0.914802
    11080.332400       0.917530
    11092.623400       0.920209
    11104.941700       0.922839
    11117.287400       0.925421
    11129.660500       0.927953
    11142.061300       0.930438
    11154.489700       0.932874
    11166.945800       0.935262
    11179.429800       0.937602
    11191.941800       0.939894
    11204.481800       0.942139
    11217.049900       0.944336
    11229.646300       0.946486
    11242.270900       0.948589
    11254.924000       0.950646
    11267.605600       0.952656
    11280.315800       0.954620
    11293.054800       0.956538
    11305.822500       0.958410
    11318.619100       0.960236
    11331.444800       0.962018
    11344.299500       0.963754
    11357.183400       0.965445
    11370.096600       0.967092
    11383.039300       0.968695
    11396.011400       0.970254
    11409.013100       0.971769
    11422.044500       0.973240
    11435.105800       0.974669
    11448.196900       0.976054
    11461.318100       0.977397
    11474.469300       0.978698
    11487.650800       0.979957
    11500.862600       0.981174
    11514.104800       0.982350
    11527.377500       0.983484
    11540.680900       0.984578
    11554.015000       0.985632
    11567.380000       0.986645
    11580.775900       0.987618
    11594.202900       0.988552
    11607.661100       0.989447
    11621.150500       0.990303
    11634.671300       0.991120
    11648.223600       0.991899
    11661.807600       0.992640
    11675.423200       0.993343
    11689.070700       0.994009
    11702.750100       0.994638
    11716.461600       0.995230
    11730.205300       0.995786
    11743.981200       0.996306
    11757.789500       0.996790
    11771.630400       0.997239
    11785.503800       0.997653
    11799.410000       0.998032
    11813.349100       0.998376
    11827.321100       0.998687
    11841.326200       0.998963
    11855.364600       0.999207
    11869.436200       0.999417
    11883.541300       0.999594
    11897.680000       0.999739
    11911.852300       0.999852
    11926.058400       0.999933
    11940.298500       0.999982
    11954.572600       1.000000
    11968.880900       0.999987
    11983.223500       0.999944
    11997.600500       0.999870
    12012.012000       0.999767
    12026.458200       0.999633
    12040.939200       0.999471
    12055.455100       0.999279
    12070.006000       0.999059
    12084.592100       0.998810
    12099.213600       0.998533
    12113.870400       0.998228
    12128.562800       0.997896
    12143.290800       0.997537
    12158.054700       0.997150
    12172.854500       0.996737
    12187.690400       0.996298
    12202.562500       0.995832
    12217.471000       0.995341
    12232.415900       0.994824
    12247.397400       0.994282
    12262.415700       0.993715
    12277.470800       0.993124
    12292.563000       0.992508
    12307.692300       0.991867
    12322.858900       0.991203
    12338.062900       0.990516
    12353.304500       0.989805
    12368.583800       0.989071
    12383.900900       0.988314
    12399.256000       0.987535
    12414.649300       0.986733
    12430.080800       0.985909
    12445.550700       0.985063
    12461.059200       0.984196
    12476.606400       0.983308
    12492.192400       0.982398
    12507.817400       0.981468
    12523.481500       0.980517
    12539.185000       0.979545
    12554.927800       0.978553
    12570.710200       0.977542
    12586.532400       0.976510
    12602.394500       0.975459
    12618.296500       0.974389
    12634.238800       0.973300
    12650.221400       0.972191
    12666.244500       0.971065
    12682.308200       0.969919
    12698.412700       0.968756
    12714.558200       0.967574
    12730.744700       0.966374
    12746.972600       0.965157
    12763.241900       0.963922
    12779.552700       0.962670
    12795.905300       0.961400
    12812.299800       0.960114
    12828.736400       0.958811
    12845.215200       0.957491
    12861.736300       0.956154
    12878.300100       0.954802
    12894.906500       0.953433
    12911.555800       0.952049
    12928.248200       0.950648
    12944.983800       0.949232
    12961.762800       0.947800
    12978.585300       0.946353
    12995.451600       0.944891
    13012.361700       0.943414
    13029.316000       0.941922
    13046.314400       0.940415
    13063.357300       0.938893
    13080.444700       0.937357
    13097.576900       0.935806
    13114.754100       0.934241
    13131.976400       0.932663
    13149.243900       0.931070
    13166.556900       0.929463
    13183.915600       0.927842
    13201.320100       0.926208
    13218.770700       0.924561
    13236.267400       0.922899
    13253.810500       0.921225
    13271.400100       0.919537
    13289.036500       0.917837
    13306.719900       0.916123
    13324.450400       0.914396
    13342.228200       0.912657
    13360.053400       0.910905
    13377.926400       0.909140
    13395.847300       0.907363
    13413.816200       0.905573
    13431.833400       0.903771
    13449.899100       0.901957
    13468.013500       0.900131
    13486.176700       0.898293
    13504.388900       0.896442
    13522.650400       0.894580
    13540.961400       0.892706
    13559.322000       0.890820
    13577.732500       0.888923
    13596.193100       0.887014
    13614.703900       0.885093
    13633.265200       0.883161
    13651.877100       0.881218
    13670.540000       0.879263
    13689.253900       0.877298
    13708.019200       0.875321
    13726.836000       0.873333
    13745.704500       0.871333
    13764.624900       0.869323
    13783.597500       0.867302
    13802.622500       0.865271
    13821.700100       0.863228
    13840.830400       0.861175
    13860.013900       0.859111
    13879.250500       0.857037
    13898.540700       0.854952
    13917.884500       0.852856
    13937.282200       0.850750
    13956.734100       0.848634
    13976.240400       0.846508
    13995.801300       0.844371
    14015.417000       0.842225
    14035.087700       0.840068
    14054.813800       0.837901
    14074.595400       0.835724
    14094.432700       0.833537
    14114.326000       0.831340
    14134.275600       0.829133
    14154.281700       0.826917
    14174.344400       0.824691
    14194.464200       0.822455
    14214.641100       0.820210
    14234.875400       0.817955
    14255.167500       0.815691
    14275.517500       0.813417
    14295.925700       0.811134
    14316.392300       0.808842
    14336.917600       0.806540
    14357.501800       0.804229
    14378.145200       0.801909
    14398.848100       0.799580
    14419.610700       0.797242
    14440.433200       0.794895
    14461.316000       0.792539
    14482.259200       0.790175
    14503.263200       0.787801
    14524.328200       0.785419
    14545.454500       0.783028
    14566.642400       0.780629
    14587.892000       0.778221
    14609.203800       0.775805
    14630.577900       0.773380
    14652.014700       0.770947
    14673.514300       0.768506
    14695.077100       0.766057
    14716.703500       0.763599
    14738.393500       0.761134
    14760.147600       0.758660
    14781.966000       0.756179
    14803.849000       0.753690
    14825.796900       0.751194
    14847.809900       0.748689
    14869.888500       0.746177
    14892.032800       0.743658
    14914.243100       0.741131
    14936.519800       0.738597
    14958.863100       0.736056
    14981.273400       0.733508
    15003.750900       0.730952
    15026.296000       0.728390
    15048.909000       0.725821
    15071.590100       0.723245
    15094.339600       0.720662
    15117.158000       0.718073
    15140.045400       0.715477
    15163.002300       0.712875
    15186.028900       0.710267
    15209.125500       0.707652
    15232.292500       0.705031
    15255.530100       0.702404
    15278.838800       0.699772
    15302.218800       0.697133
    15325.670500       0.694489
    15349.194200       0.691839
    15372.790200       0.689184
    15396.458800       0.686524
    15420.200500       0.683858
    15444.015400       0.681187
    15467.904100       0.678511
    15491.866800       0.675830
    15515.903800       0.673144
    15540.015500       0.670454
    15564.202300       0.667759
    15588.464500       0.665060
    15612.802500       0.662356
    15637.216600       0.659648
    15661.707100       0.656936
    15686.274500       0.654220
    15710.919100       0.651501
    15735.641200       0.648778
    15760.441300       0.646051
    15785.319700       0.643320
    15810.276700       0.640587
    15835.312700       0.637850
    15860.428200       0.635110
    15885.623500       0.632367
    15910.899000       0.629622
    15936.255000       0.626874
    15961.691900       0.624123
    15987.210200       0.621370
    16012.810200       0.618615
    16038.492400       0.615858
    16064.257000       0.613099
    16090.104600       0.610338
    16116.035500       0.607576
    16142.050000       0.604811
    16168.148700       0.602046
    16194.332000       0.599279
    16220.600200       0.596512
    16246.953700       0.593743
    16273.393000       0.590974
    16299.918500       0.588204
    16326.530600       0.585433
    16353.229800       0.582663
    16380.016400       0.579891
    16406.890900       0.577120
    16433.853700       0.574349
    16460.905300       0.571579
    16488.046200       0.568809
    16515.276600       0.566039
    16542.597200       0.563270
    16570.008300       0.560502
    16597.510400       0.557735
    16625.103900       0.554968
    16652.789300       0.552204
    16680.567100       0.549440
    16708.437800       0.546679
    16736.401700       0.543919
    16764.459300       0.541161
    16792.611300       0.538405
    16820.857900       0.535651
    16849.199700       0.532899
    16877.637100       0.530150
    16906.170800       0.527404
    16934.801000       0.524660
    16963.528400       0.521919
    16992.353400       0.519182
    17021.276600       0.516447
    17050.298400       0.513716
    17079.419300       0.510988
    17108.639900       0.508264
    17137.960600       0.505543
    17167.382000       0.502826
    17196.904600       0.500114
    17226.528900       0.497405
    17256.255400       0.494701
    17286.084700       0.492001
    17316.017300       0.489306
    17346.053800       0.486615
    17376.194600       0.483929
    17406.440400       0.481248
    17436.791600       0.478572
    17467.248900       0.475900
    17497.812800       0.473235
    17528.483800       0.470574
    17559.262500       0.467919
    17590.149500       0.465270
    17621.145400       0.462626
    17652.250700       0.459988
    17683.466000       0.457356
    17714.791900       0.454729
    17746.228900       0.452109
    17777.777800       0.449495
    17809.439000       0.446888
    17841.213200       0.444286
    17873.101000       0.441691
    17905.103000       0.439103
    17937.219700       0.436521
    17969.451900       0.433946
    18001.800200       0.431377
    18034.265100       0.428816
    18066.847300       0.426261
    18099.547500       0.423713
    18132.366300       0.421172
    18165.304300       0.418638
    18198.362100       0.416112
    18231.540600       0.413592
    18264.840200       0.411080
    18298.261700       0.408574
    18331.805700       0.406076
    18365.472900       0.403586
    18399.264000       0.401103
    18433.179700       0.398627
    18467.220700       0.396158
    18501.387600       0.393697
    18535.681200       0.391244
    18570.102100       0.388798
    18604.651200       0.386359
    18639.329000       0.383927
    18674.136300       0.381503
    18709.073900       0.379087
    18744.142500       0.376678
    18779.342700       0.374276
    18814.675400       0.371882
    18850.141400       0.369495
    18885.741300       0.367116
    18921.475900       0.364744
    18957.346000       0.362379
    18993.352300       0.360021
    19029.495700       0.357670
    19065.776900       0.355327
    19102.196800       0.352991
    19138.756000       0.350661
    19175.455400       0.348339
    19212.295900       0.346023
    19249.278200       0.343715
    19286.403100       0.341412
    19323.671500       0.339117
    19361.084200       0.336828
    19398.642100       0.334546
    19436.346000       0.332270
    19474.196700       0.330000
    19512.195100       0.327737
    19550.342100       0.325479
    19588.638600       0.323228
    19627.085400       0.320982
    19665.683400       0.318741
    19704.433500       0.316507
    19743.336600       0.314278
    19782.393700       0.312054
    19821.605600       0.309835
    19860.973200       0.307621
    19900.497500       0.305412
    19940.179500       0.303208
    19980.020000       0.301008
    20020.020000       0.298812
    20060.180500       0.296621
    20100.502500       0.294434
    20140.986900       0.292250
    20181.634700       0.290070
    20222.446900       0.287894
    20263.424500       0.285720
    20304.568500       0.283550
    20345.880000       0.281383
    20387.359800       0.279218
    20429.009200       0.277056
    20470.829100       0.274896
    20512.820500       0.272738
    20554.984600       0.270582
    20597.322300       0.268427
    20639.834900       0.266274
    20682.523300       0.264122
    20725.388600       0.261970
    20768.432000       0.259820
    20811.654500       0.257670
    20855.057400       0.255520
    20898.641600       0.253370
    20942.408400       0.251220
    20986.358900       0.249069
    21030.494200       0.246917
    21074.815600       0.244764
    21119.324200       0.242611
    21164.021200       0.240455
    21208.907700       0.238298
    21253.985100       0.236138
    21299.254500       0.233977
    21344.717200       0.231813
    21390.374300       0.229646
    21436.227200       0.227476
    21482.277100       0.225302
    21528.525300       0.223126
    21574.973000       0.220945
    21621.621600       0.218760
    21668.472400       0.216571
    21715.526600       0.214377
    21762.785600       0.212178
    21810.250800       0.209974
    21857.923500       0.207765
    21905.805000       0.205550
    21953.896800       0.203330
    22002.200200       0.201103
    22050.716600       0.198870
    22099.447500       0.196630
    22148.394200       0.194383
    22197.558300       0.192130
    22246.941000       0.189869
    22296.544000       0.187601
    22346.368700       0.185324
    22396.416600       0.183040
    22446.689100       0.180748
    22497.187900       0.178448
    22547.914300       0.176139
    22598.870100       0.173821
    22650.056600       0.171494
    22701.475600       0.169158
    22753.128600       0.166813
    22805.017100       0.164458
    22857.142900       0.162094
    22909.507400       0.159720
    22962.112500       0.157337
    23014.959700       0.154943
    23068.050700       0.152539
    23121.387300       0.150125
    23174.971000       0.147701
    23228.803700       0.145266
    23282.887100       0.142821
    23337.222900       0.140365
    23391.812900       0.137898
    23446.658900       0.135421
    23501.762600       0.132934
    23557.126000       0.130435
    23612.750900       0.127926
    23668.639100       0.125407
    23724.792400       0.122877
    23781.212800       0.120336
    23837.902300       0.117785
    23894.862600       0.115223
    23952.095800       0.112652
    24009.603800       0.110070
    24067.388700       0.107478
    24125.452400       0.104876
    24183.796900       0.102265
    24242.424200       0.099644
    24301.336600       0.097014
    24360.535900       0.094374
    24420.024400       0.091727
    24479.804200       0.089070
    24539.877300       0.086406
    24600.246000       0.083734
    24660.912500       0.081054
    24721.878900       0.078368
    24783.147500       0.075675
    24844.720500       0.072975
    24906.600200       0.070270
    24968.789000       0.067560
    25031.289100       0.064845
    25094.102900       0.062126
    25157.232700       0.059404
    25220.681000       0.056679
    25284.450100       0.053951
    25348.542500       0.051222
    25412.960600       0.048492
    25477.707000       0.045762
