25,    channel 25 SRF extracted from SRF_FY-3F_MERSI-III.zip(FY3F_MERSI_SRF_CH25_Pub.txt) (received Nov 2023)
Number of data points:
354
Wavenumber (cm-1)   Filter response
      773.993600       0.017509
      774.293500       0.019373
      774.593900       0.021360
      774.892600       0.023395
      775.193300       0.025861
      775.494600       0.028438
      775.795800       0.031223
      776.095600       0.034814
      776.397500       0.039224
      776.699800       0.043955
      777.000300       0.049108
      777.303100       0.054210
      777.604200       0.059543
      777.907600       0.065483
      778.209100       0.072005
      778.512900       0.078486
      778.817000       0.085049
      779.119600       0.093279
      779.424200       0.100375
      779.727300       0.110358
      780.030600       0.118797
      780.336100       0.129148
      780.639900       0.140133
      780.944000       0.151165
      781.250400       0.162613
      781.555000       0.175937
      781.859900       0.187249
      782.167100       0.199499
      782.472600       0.212105
      782.778400       0.226891
      783.084500       0.242348
      783.392700       0.258171
      783.699400       0.273816
      784.006300       0.289866
      784.313400       0.309996
      784.620900       0.327966
      784.928600       0.342124
      785.236600       0.362354
      785.546800       0.380272
      785.855500       0.399625
      786.164200       0.426883
      786.473300       0.447955
      786.782700       0.469308
      787.092400       0.487741
      787.402400       0.503310
      787.712700       0.520032
      788.021200       0.534464
      788.332100       0.540239
      788.643100       0.543388
      788.954600       0.549140
      789.266300       0.556227
      789.578200       0.561840
      789.890400       0.565459
      790.201000       0.573177
      790.513800       0.580486
      790.826900       0.590339
      791.138300       0.598483
      791.451900       0.608659
      791.765900       0.617990
      792.080100       0.631432
      792.392700       0.638390
      792.707500       0.645313
      793.020600       0.655846
      793.335900       0.664491
      793.651700       0.672106
      793.965600       0.678328
      794.281800       0.684384
      794.596400       0.692869
      794.913200       0.699441
      795.228400       0.703608
      795.545900       0.708577
      795.861500       0.716498
      796.177400       0.724693
      796.495800       0.726046
      796.812300       0.729398
      797.131200       0.735999
      797.448400       0.742026
      797.765800       0.745956
      798.085500       0.749970
      798.403500       0.752934
      798.721900       0.757509
      799.040500       0.759973
      799.361400       0.758198
      799.680600       0.762225
      800.000100       0.767947
      800.319800       0.767687
      800.639900       0.771676
      800.960300       0.774458
      801.282900       0.780000
      801.604000       0.787609
      801.925200       0.788408
      802.246800       0.788233
      802.568600       0.791980
      802.890700       0.792112
      803.213100       0.795426
      803.535900       0.796303
      803.858900       0.794563
      804.182200       0.795266
      804.505900       0.796289
      804.829700       0.800635
      805.154100       0.806491
      805.476600       0.806992
      805.801300       0.806713
      806.126400       0.808739
      806.451900       0.811756
      806.777600       0.818081
      807.101600       0.818390
      807.427800       0.817078
      807.754500       0.821428
      808.081400       0.825505
      808.406600       0.827978
      808.734200       0.829355
      809.062100       0.830815
      809.388100       0.831380
      809.716500       0.831934
      810.045300       0.831289
      810.372200       0.830790
      810.701600       0.832577
      811.029200       0.836333
      811.359200       0.836494
      811.687300       0.836704
      812.017900       0.837693
      812.346700       0.838855
      812.677800       0.841486
      813.007300       0.841545
      813.339100       0.838103
      813.669200       0.838321
      814.001600       0.842855
      814.332200       0.843258
      814.663200       0.846215
      814.996400       0.848230
      815.328100       0.850388
      815.660000       0.855985
      815.994300       0.855143
      816.326700       0.852863
      816.659500       0.853903
      816.992600       0.853623
      817.328100       0.852313
      817.661900       0.852785
      817.995900       0.850693
      818.330300       0.851894
      818.665000       0.853696
      818.999800       0.853945
      819.337300       0.853887
      819.673000       0.853927
      820.008800       0.851592
      820.345100       0.850592
      820.681600       0.851290
      821.018500       0.852681
      821.355700       0.852125
      821.693100       0.850338
      822.031000       0.849905
      822.369000       0.849162
      822.707500       0.849131
      823.046300       0.847499
      823.383100       0.844278
      823.722600       0.846768
      824.062300       0.846261
      824.402300       0.846702
      824.742600       0.850659
      825.083300       0.850048
      825.422100       0.850390
      825.763400       0.853468
      826.105100       0.850830
      826.447000       0.850887
      826.787000       0.853771
      827.129700       0.854586
      827.472500       0.857505
      827.813600       0.858377
      828.157200       0.856833
      828.501000       0.859369
      828.843000       0.860032
      829.187500       0.856306
      829.532400       0.853970
      829.875300       0.856098
      830.220800       0.854535
      830.564500       0.853280
      830.910600       0.851864
      831.254900       0.852621
      831.601700       0.853569
      831.946600       0.851529
      832.291900       0.847713
      832.639700       0.849524
      832.985600       0.850303
      833.333900       0.851166
      833.680600       0.853924
      834.027500       0.854359
      834.376900       0.857680
      834.724300       0.860115
      835.072300       0.861605
      835.422600       0.861700
      835.771200       0.864362
      836.120100       0.865624
      836.469300       0.868213
      836.821000       0.868957
      837.170800       0.871130
      837.521100       0.871572
      837.871600       0.874887
      838.222400       0.875403
      838.573500       0.876971
      838.927300       0.880154
      839.279200       0.886647
      839.631300       0.891567
      839.983900       0.894642
      840.336800       0.898363
      840.689800       0.900718
      841.043400       0.902831
      841.397300       0.904816
      841.751500       0.904886
      842.106000       0.905076
      842.460800       0.907386
      842.816100       0.909991
      843.169300       0.912015
      843.525200       0.913451
      843.881400       0.914188
      844.238000       0.915683
      844.594900       0.918692
      844.952000       0.921464
      845.309700       0.921653
      845.665300       0.923918
      846.023500       0.927367
      846.382200       0.927378
      846.741200       0.933151
      847.098100       0.932046
      847.457700       0.935943
      847.817900       0.940013
      848.175700       0.944133
      848.536400       0.946232
      848.897500       0.949634
      849.256500       0.947649
      849.618200       0.950369
      849.977900       0.948397
      850.340300       0.949775
      850.700700       0.951458
      851.063800       0.951853
      851.427300       0.955810
      851.788800       0.958471
      852.150600       0.963580
      852.515100       0.968481
      852.877500       0.973659
      853.242700       0.975506
      853.606000       0.979922
      853.971700       0.982693
      854.335700       0.986931
      854.699900       0.988464
      855.066900       0.993899
      855.431800       0.993579
      855.797100       0.994951
      856.165200       0.995882
      856.531100       0.997980
      856.897500       0.998200
      857.264300       1.000000
      857.633600       0.995107
      858.001100       0.994955
      858.368900       0.994299
      858.736900       0.992929
      859.105500       0.984510
      859.476700       0.977586
      859.845900       0.966737
      860.215400       0.957103
      860.585300       0.942833
      860.955600       0.926650
      861.326200       0.910582
      861.697200       0.895255
      862.068500       0.880010
      862.440300       0.863265
      862.812300       0.849703
      863.184700       0.834809
      863.557600       0.815397
      863.930600       0.797238
      864.304200       0.776573
      864.678100       0.753390
      865.052200       0.730043
      865.426900       0.704486
      865.801900       0.676569
      866.174700       0.650898
      866.550400       0.622366
      866.926500       0.597545
      867.302900       0.568460
      867.679500       0.539005
      868.056800       0.508790
      868.431900       0.479333
      868.809800       0.452962
      869.188100       0.425924
      869.564200       0.400439
      869.943200       0.378709
      870.322500       0.361301
      870.699900       0.345010
      871.079900       0.329764
      871.460400       0.313902
      871.838800       0.296297
      872.220000       0.281393
      872.599200       0.267819
      872.981100       0.251268
      873.363400       0.234034
      873.743700       0.218398
      874.126700       0.205180
      874.507600       0.195053
      874.891500       0.182792
      875.273200       0.169670
      875.657800       0.158451
      876.040400       0.148699
      876.423200       0.139015
      876.808900       0.128910
      877.192500       0.118285
      877.579000       0.107701
      877.963300       0.099181
      878.348000       0.089676
      878.735700       0.080461
      879.121200       0.073291
      879.506900       0.066680
      879.893300       0.060358
      880.282400       0.055691
      880.669500       0.050004
      881.056900       0.045079
      881.444500       0.041391
      881.835300       0.037441
      882.223700       0.032546
      882.612700       0.029703
      883.002000       0.026356
      883.391700       0.023481
      883.781700       0.021909
      884.172200       0.019831
      884.565600       0.018632
      884.956700       0.017738
      885.348300       0.016344
      885.740400       0.015247
      886.132700       0.015497
      886.525400       0.015532
      886.918700       0.015325
      887.312100       0.015325
      887.706100       0.015428
      888.100400       0.015221
      888.495200       0.015601
      888.887700       0.015428
      889.283300       0.015221
      889.679100       0.015670
      890.075300       0.014945
      890.472000       0.014255
      890.869100       0.014186
      891.266500       0.013185
      891.661800       0.013288
      892.060100       0.013047
      892.458700       0.011908
      892.857800       0.011977
      893.257100       0.012564
      893.654300       0.012149
      894.054600       0.012978
      894.455300       0.012702
      894.853700       0.012287
      895.255100       0.012736
      895.656900       0.011839
      896.056500       0.011908
      896.459100       0.012218
