62,   62, MVIRI VIS channel from srf_MET2_1989303_1989304_1801-Release_S10EL_10.dat
Number of data points:
730
Wavenumber (cm-1)   Filter response
     8916.629500       0.000000
     8924.587200       0.000000
     8932.559200       0.000002
     8940.545400       0.000012
     8948.545900       0.000033
     8956.560700       0.000070
     8964.589900       0.000128
     8972.633500       0.000210
     8980.691500       0.000322
     8988.764000       0.000466
     8996.851100       0.000647
     9004.952700       0.000867
     9013.068900       0.001131
     9021.199800       0.001442
     9029.345400       0.001802
     9037.505600       0.002215
     9045.680700       0.002683
     9053.870500       0.003209
     9062.075200       0.003795
     9070.294800       0.004445
     9078.529300       0.005159
     9086.778700       0.005941
     9095.043200       0.006793
     9103.322700       0.007715
     9111.617300       0.008710
     9119.927000       0.009780
     9128.251900       0.010925
     9136.592100       0.012149
     9144.947400       0.013451
     9153.318100       0.014833
     9161.704100       0.016296
     9170.105500       0.017841
     9178.522300       0.019469
     9186.954500       0.021181
     9195.402300       0.022978
     9203.865600       0.024859
     9212.344500       0.026827
     9220.839100       0.028881
     9229.349300       0.031022
     9237.875300       0.033249
     9246.417000       0.035563
     9254.974500       0.037965
     9263.547900       0.040455
     9272.137200       0.043031
     9280.742500       0.045695
     9289.363700       0.048447
     9298.000900       0.051285
     9306.654300       0.054210
     9315.323700       0.057222
     9324.009300       0.060320
     9332.711200       0.063504
     9341.429200       0.066772
     9350.163600       0.070126
     9358.914400       0.073564
     9367.681500       0.077085
     9376.465100       0.080690
     9385.265100       0.084376
     9394.081700       0.088144
     9402.914900       0.091992
     9411.764700       0.095920
     9420.631200       0.099928
     9429.514400       0.104012
     9438.414300       0.108175
     9447.331100       0.112413
     9456.264800       0.116726
     9465.215300       0.121113
     9474.182900       0.125573
     9483.167400       0.130105
     9492.169000       0.134707
     9501.187600       0.139379
     9510.223500       0.144119
     9519.276500       0.148926
     9528.346800       0.153800
     9537.434400       0.158738
     9546.539400       0.163738
     9555.661700       0.168802
     9564.801500       0.173925
     9573.958800       0.179109
     9583.133700       0.184351
     9592.326100       0.189648
     9601.536200       0.195002
     9610.764100       0.200409
     9620.009600       0.205870
     9629.273000       0.211381
     9638.554200       0.216942
     9647.853400       0.222552
     9657.170400       0.228208
     9666.505600       0.233910
     9675.858700       0.239656
     9685.230000       0.245445
     9694.619500       0.251275
     9704.027200       0.257144
     9713.453100       0.263053
     9722.897400       0.268998
     9732.360100       0.274978
     9741.841200       0.280993
     9751.340800       0.287040
     9760.859000       0.293118
     9770.395700       0.299226
     9779.951100       0.305362
     9789.525200       0.311525
     9799.118100       0.317713
     9808.729800       0.323925
     9818.360300       0.330160
     9828.009800       0.336415
     9837.678300       0.342691
     9847.365800       0.348984
     9857.072400       0.355294
     9866.798200       0.361621
     9876.543200       0.367960
     9886.307500       0.374313
     9896.091000       0.380677
     9905.894000       0.387051
     9915.716400       0.393434
     9925.558300       0.399823
     9935.419800       0.406219
     9945.300800       0.412620
     9955.201600       0.419024
     9965.122100       0.425430
     9975.062300       0.431837
     9985.022500       0.438243
     9995.002500       0.444648
    10005.002500       0.451050
    10015.022500       0.457447
    10025.062700       0.463839
    10035.122900       0.470224
    10045.203400       0.476602
    10055.304200       0.482971
    10065.425300       0.489329
    10075.566800       0.495677
    10085.728700       0.502012
    10095.911200       0.508333
    10106.114200       0.514640
    10116.337900       0.520931
    10126.582300       0.527206
    10136.847400       0.533462
    10147.133400       0.539700
    10157.440300       0.545918
    10167.768200       0.552115
    10178.117000       0.558290
    10188.487000       0.564443
    10198.878100       0.570572
    10209.290500       0.576676
    10219.724100       0.582754
    10230.179000       0.588806
    10240.655400       0.594831
    10251.153300       0.600827
    10261.672700       0.606794
    10272.213700       0.612731
    10282.776300       0.618637
    10293.360800       0.624512
    10303.967000       0.630355
    10314.595200       0.636164
    10325.245200       0.641939
    10335.917300       0.647680
    10346.611500       0.653386
    10357.327800       0.659055
    10368.066400       0.664688
    10378.827200       0.670283
    10389.610400       0.675840
    10400.416000       0.681359
    10411.244100       0.686838
    10422.094800       0.692277
    10432.968200       0.697676
    10443.864200       0.703034
    10454.783100       0.708350
    10465.724800       0.713624
    10476.689400       0.718856
    10487.677000       0.724044
    10498.687700       0.729189
    10509.721500       0.734289
    10520.778500       0.739345
    10531.858900       0.744356
    10542.962600       0.749321
    10554.089700       0.754241
    10565.240400       0.759114
    10576.414600       0.763941
    10587.612500       0.768721
    10598.834100       0.773453
    10610.079600       0.778138
    10621.348900       0.782775
    10632.642200       0.787363
    10643.959600       0.791903
    10655.301000       0.796394
    10666.666700       0.800836
    10678.056600       0.805229
    10689.470900       0.809571
    10700.909600       0.813865
    10712.372800       0.818108
    10723.860600       0.822301
    10735.373100       0.826443
    10746.910300       0.830536
    10758.472300       0.834577
    10770.059200       0.838567
    10781.671200       0.842507
    10793.308100       0.846395
    10804.970300       0.850233
    10816.657700       0.854019
    10828.370300       0.857753
    10840.108400       0.861437
    10851.871900       0.865068
    10863.661100       0.868649
    10875.475800       0.872178
    10887.316300       0.875655
    10899.182600       0.879080
    10911.074700       0.882455
    10922.992900       0.885777
    10934.937100       0.889048
    10946.907500       0.892267
    10958.904100       0.895435
    10970.927000       0.898552
    10982.976400       0.901617
    10995.052200       0.904631
    11007.154700       0.907594
    11019.283700       0.910506
    11031.439600       0.913366
    11043.622300       0.916176
    11055.832000       0.918935
    11068.068600       0.921643
    11080.332400       0.924301
    11092.623400       0.926909
    11104.941700       0.929466
    11117.287400       0.931973
    11129.660500       0.934430
    11142.061300       0.936838
    11154.489700       0.939196
    11166.945800       0.941504
    11179.429800       0.943764
    11191.941800       0.945974
    11204.481800       0.948136
    11217.049900       0.950249
    11229.646300       0.952314
    11242.270900       0.954330
    11254.924000       0.956299
    11267.605600       0.958220
    11280.315800       0.960094
    11293.054800       0.961920
    11305.822500       0.963700
    11318.619100       0.965433
    11331.444800       0.967119
    11344.299500       0.968760
    11357.183400       0.970354
    11370.096600       0.971903
    11383.039300       0.973407
    11396.011400       0.974865
    11409.013100       0.976279
    11422.044500       0.977648
    11435.105800       0.978974
    11448.196900       0.980255
    11461.318100       0.981493
    11474.469300       0.982687
    11487.650800       0.983839
    11500.862600       0.984948
    11514.104800       0.986014
    11527.377500       0.987039
    11540.680900       0.988022
    11554.015000       0.988963
    11567.380000       0.989863
    11580.775900       0.990723
    11594.202900       0.991542
    11607.661100       0.992321
    11621.150500       0.993060
    11634.671300       0.993760
    11648.223600       0.994421
    11661.807600       0.995043
    11675.423200       0.995626
    11689.070700       0.996171
    11702.750100       0.996679
    11716.461600       0.997149
    11730.205300       0.997581
    11743.981200       0.997978
    11757.789500       0.998337
    11771.630400       0.998660
    11785.503800       0.998948
    11799.410000       0.999200
    11813.349100       0.999417
    11827.321100       0.999599
    11841.326200       0.999747
    11855.364600       0.999861
    11869.436200       0.999941
    11883.541300       0.999987
    11897.680000       1.000000
    11911.852300       0.999980
    11926.058400       0.999928
    11940.298500       0.999844
    11954.572600       0.999728
    11968.880900       0.999580
    11983.223500       0.999401
    11997.600500       0.999192
    12012.012000       0.998951
    12026.458200       0.998681
    12040.939200       0.998380
    12055.455100       0.998050
    12070.006000       0.997691
    12084.592100       0.997303
    12099.213600       0.996886
    12113.870400       0.996441
    12128.562800       0.995968
    12143.290800       0.995467
    12158.054700       0.994938
    12172.854500       0.994383
    12187.690400       0.993800
    12202.562500       0.993191
    12217.471000       0.992556
    12232.415900       0.991895
    12247.397400       0.991208
    12262.415700       0.990496
    12277.470800       0.989759
    12292.563000       0.988996
    12307.692300       0.988210
    12322.858900       0.987399
    12338.062900       0.986564
    12353.304500       0.985705
    12368.583800       0.984823
    12383.900900       0.983918
    12399.256000       0.982990
    12414.649300       0.982039
    12430.080800       0.981066
    12445.550700       0.980070
    12461.059200       0.979053
    12476.606400       0.978014
    12492.192400       0.976953
    12507.817400       0.975872
    12523.481500       0.974769
    12539.185000       0.973646
    12554.927800       0.972502
    12570.710200       0.971338
    12586.532400       0.970154
    12602.394500       0.968951
    12618.296500       0.967727
    12634.238800       0.966485
    12650.221400       0.965223
    12666.244500       0.963942
    12682.308200       0.962643
    12698.412700       0.961325
    12714.558200       0.959988
    12730.744700       0.958634
    12746.972600       0.957262
    12763.241900       0.955872
    12779.552700       0.954464
    12795.905300       0.953040
    12812.299800       0.951598
    12828.736400       0.950139
    12845.215200       0.948663
    12861.736300       0.947170
    12878.300100       0.945662
    12894.906500       0.944137
    12911.555800       0.942595
    12928.248200       0.941038
    12944.983800       0.939465
    12961.762800       0.937877
    12978.585300       0.936273
    12995.451600       0.934654
    13012.361700       0.933019
    13029.316000       0.931370
    13046.314400       0.929706
    13063.357300       0.928027
    13080.444700       0.926333
    13097.576900       0.924625
    13114.754100       0.922903
    13131.976400       0.921166
    13149.243900       0.919416
    13166.556900       0.917651
    13183.915600       0.915873
    13201.320100       0.914081
    13218.770700       0.912276
    13236.267400       0.910457
    13253.810500       0.908625
    13271.400100       0.906780
    13289.036500       0.904921
    13306.719900       0.903050
    13324.450400       0.901166
    13342.228200       0.899269
    13360.053400       0.897360
    13377.926400       0.895437
    13395.847300       0.893503
    13413.816200       0.891556
    13431.833400       0.889597
    13449.899100       0.887626
    13468.013500       0.885643
    13486.176700       0.883647
    13504.388900       0.881640
    13522.650400       0.879621
    13540.961400       0.877591
    13559.322000       0.875549
    13577.732500       0.873495
    13596.193100       0.871430
    13614.703900       0.869354
    13633.265200       0.867266
    13651.877100       0.865167
    13670.540000       0.863057
    13689.253900       0.860936
    13708.019200       0.858804
    13726.836000       0.856661
    13745.704500       0.854508
    13764.624900       0.852343
    13783.597500       0.850168
    13802.622500       0.847982
    13821.700100       0.845786
    13840.830400       0.843580
    13860.013900       0.841363
    13879.250500       0.839136
    13898.540700       0.836898
    13917.884500       0.834651
    13937.282200       0.832393
    13956.734100       0.830125
    13976.240400       0.827847
    13995.801300       0.825560
    14015.417000       0.823262
    14035.087700       0.820955
    14054.813800       0.818638
    14074.595400       0.816312
    14094.432700       0.813976
    14114.326000       0.811630
    14134.275600       0.809275
    14154.281700       0.806911
    14174.344400       0.804537
    14194.464200       0.802154
    14214.641100       0.799762
    14234.875400       0.797361
    14255.167500       0.794951
    14275.517500       0.792532
    14295.925700       0.790103
    14316.392300       0.787666
    14336.917600       0.785221
    14357.501800       0.782767
    14378.145200       0.780304
    14398.848100       0.777832
    14419.610700       0.775352
    14440.433200       0.772864
    14461.316000       0.770367
    14482.259200       0.767862
    14503.263200       0.765348
    14524.328200       0.762827
    14545.454500       0.760298
    14566.642400       0.757760
    14587.892000       0.755215
    14609.203800       0.752662
    14630.577900       0.750101
    14652.014700       0.747532
    14673.514300       0.744956
    14695.077100       0.742373
    14716.703500       0.739782
    14738.393500       0.737183
    14760.147600       0.734578
    14781.966000       0.731965
    14803.849000       0.729345
    14825.796900       0.726718
    14847.809900       0.724084
    14869.888500       0.721443
    14892.032800       0.718796
    14914.243100       0.716142
    14936.519800       0.713481
    14958.863100       0.710814
    14981.273400       0.708141
    15003.750900       0.705461
    15026.296000       0.702775
    15048.909000       0.700083
    15071.590100       0.697385
    15094.339600       0.694682
    15117.158000       0.691972
    15140.045400       0.689257
    15163.002300       0.686536
    15186.028900       0.683810
    15209.125500       0.681078
    15232.292500       0.678341
    15255.530100       0.675599
    15278.838800       0.672853
    15302.218800       0.670101
    15325.670500       0.667344
    15349.194200       0.664583
    15372.790200       0.661817
    15396.458800       0.659047
    15420.200500       0.656272
    15444.015400       0.653493
    15467.904100       0.650710
    15491.866800       0.647923
    15515.903800       0.645133
    15540.015500       0.642338
    15564.202300       0.639540
    15588.464500       0.636739
    15612.802500       0.633934
    15637.216600       0.631126
    15661.707100       0.628315
    15686.274500       0.625501
    15710.919100       0.622684
    15735.641200       0.619865
    15760.441300       0.617043
    15785.319700       0.614218
    15810.276700       0.611392
    15835.312700       0.608563
    15860.428200       0.605732
    15885.623500       0.602900
    15910.899000       0.600065
    15936.255000       0.597230
    15961.691900       0.594393
    15987.210200       0.591554
    16012.810200       0.588714
    16038.492400       0.585874
    16064.257000       0.583032
    16090.104600       0.580190
    16116.035500       0.577347
    16142.050000       0.574504
    16168.148700       0.571661
    16194.332000       0.568818
    16220.600200       0.565974
    16246.953700       0.563131
    16273.393000       0.560288
    16299.918500       0.557446
    16326.530600       0.554604
    16353.229800       0.551763
    16380.016400       0.548923
    16406.890900       0.546084
    16433.853700       0.543246
    16460.905300       0.540410
    16488.046200       0.537575
    16515.276600       0.534742
    16542.597200       0.531911
    16570.008300       0.529081
    16597.510400       0.526254
    16625.103900       0.523429
    16652.789300       0.520607
    16680.567100       0.517787
    16708.437800       0.514970
    16736.401700       0.512156
    16764.459300       0.509345
    16792.611300       0.506537
    16820.857900       0.503732
    16849.199700       0.500931
    16877.637100       0.498133
    16906.170800       0.495339
    16934.801000       0.492549
    16963.528400       0.489763
    16992.353400       0.486981
    17021.276600       0.484203
    17050.298400       0.481430
    17079.419300       0.478662
    17108.639900       0.475898
    17137.960600       0.473139
    17167.382000       0.470385
    17196.904600       0.467636
    17226.528900       0.464893
    17256.255400       0.462154
    17286.084700       0.459422
    17316.017300       0.456694
    17346.053800       0.453973
    17376.194600       0.451258
    17406.440400       0.448548
    17436.791600       0.445844
    17467.248900       0.443147
    17497.812800       0.440456
    17528.483800       0.437772
    17559.262500       0.435094
    17590.149500       0.432422
    17621.145400       0.429758
    17652.250700       0.427100
    17683.466000       0.424449
    17714.791900       0.421805
    17746.228900       0.419168
    17777.777800       0.416539
    17809.439000       0.413917
    17841.213200       0.411302
    17873.101000       0.408695
    17905.103000       0.406095
    17937.219700       0.403503
    17969.451900       0.400919
    18001.800200       0.398342
    18034.265100       0.395773
    18066.847300       0.393212
    18099.547500       0.390660
    18132.366300       0.388115
    18165.304300       0.385578
    18198.362100       0.383049
    18231.540600       0.380529
    18264.840200       0.378017
    18298.261700       0.375513
    18331.805700       0.373017
    18365.472900       0.370529
    18399.264000       0.368050
    18433.179700       0.365580
    18467.220700       0.363118
    18501.387600       0.360664
    18535.681200       0.358218
    18570.102100       0.355782
    18604.651200       0.353353
    18639.329000       0.350933
    18674.136300       0.348522
    18709.073900       0.346119
    18744.142500       0.343724
    18779.342700       0.341338
    18814.675400       0.338960
    18850.141400       0.336591
    18885.741300       0.334230
    18921.475900       0.331877
    18957.346000       0.329533
    18993.352300       0.327197
    19029.495700       0.324869
    19065.776900       0.322550
    19102.196800       0.320238
    19138.756000       0.317935
    19175.455400       0.315639
    19212.295900       0.313352
    19249.278200       0.311073
    19286.403100       0.308801
    19323.671500       0.306537
    19361.084200       0.304281
    19398.642100       0.302033
    19436.346000       0.299792
    19474.196700       0.297558
    19512.195100       0.295332
    19550.342100       0.293113
    19588.638600       0.290901
    19627.085400       0.288696
    19665.683400       0.286498
    19704.433500       0.284307
    19743.336600       0.282122
    19782.393700       0.279944
    19821.605600       0.277773
    19860.973200       0.275608
    19900.497500       0.273449
    19940.179500       0.271296
    19980.020000       0.269149
    20020.020000       0.267008
    20060.180500       0.264872
    20100.502500       0.262742
    20140.986900       0.260617
    20181.634700       0.258497
    20222.446900       0.256382
    20263.424500       0.254272
    20304.568500       0.252167
    20345.880000       0.250066
    20387.359800       0.247970
    20429.009200       0.245878
    20470.829100       0.243789
    20512.820500       0.241705
    20554.984600       0.239624
    20597.322300       0.237546
    20639.834900       0.235472
    20682.523300       0.233401
    20725.388600       0.231332
    20768.432000       0.229267
    20811.654500       0.227204
    20855.057400       0.225143
    20898.641600       0.223084
    20942.408400       0.221027
    20986.358900       0.218971
    21030.494200       0.216917
    21074.815600       0.214865
    21119.324200       0.212813
    21164.021200       0.210763
    21208.907700       0.208713
    21253.985100       0.206663
    21299.254500       0.204614
    21344.717200       0.202565
    21390.374300       0.200516
    21436.227200       0.198466
    21482.277100       0.196416
    21528.525300       0.194365
    21574.973000       0.192313
    21621.621600       0.190260
    21668.472400       0.188205
    21715.526600       0.186149
    21762.785600       0.184091
    21810.250800       0.182032
    21857.923500       0.179970
    21905.805000       0.177906
    21953.896800       0.175839
    22002.200200       0.173770
    22050.716600       0.171698
    22099.447500       0.169622
    22148.394200       0.167544
    22197.558300       0.165462
    22246.941000       0.163377
    22296.544000       0.161288
    22346.368700       0.159195
    22396.416600       0.157098
    22446.689100       0.154997
    22497.187900       0.152892
    22547.914300       0.150782
    22598.870100       0.148668
    22650.056600       0.146549
    22701.475600       0.144425
    22753.128600       0.142297
    22805.017100       0.140163
    22857.142900       0.138025
    22909.507400       0.135881
    22962.112500       0.133732
    23014.959700       0.131578
    23068.050700       0.129418
    23121.387300       0.127253
    23174.971000       0.125083
    23228.803700       0.122907
    23282.887100       0.120726
    23337.222900       0.118539
    23391.812900       0.116347
    23446.658900       0.114149
    23501.762600       0.111946
    23557.126000       0.109737
    23612.750900       0.107524
    23668.639100       0.105305
    23724.792400       0.103080
    23781.212800       0.100851
    23837.902300       0.098617
    23894.862600       0.096378
    23952.095800       0.094134
    24009.603800       0.091885
    24067.388700       0.089632
    24125.452400       0.087375
    24183.796900       0.085114
    24242.424200       0.082849
    24301.336600       0.080580
    24360.535900       0.078309
    24420.024400       0.076034
    24479.804200       0.073756
    24539.877300       0.071476
    24600.246000       0.069194
    24660.912500       0.066909
    24721.878900       0.064624
    24783.147500       0.062337
    24844.720500       0.060050
    24906.600200       0.057763
    24968.789000       0.055476
    25031.289100       0.053190
    25094.102900       0.050904
    25157.232700       0.048621
    25220.681000       0.046340
    25284.450100       0.044062
    25348.542500       0.041787
    25412.960600       0.039517
    25477.707000       0.037250
