7,   7, MVIRI VIS channel from srf_MET6_1997303_1997304_1801-Release_S10EL_10.dat
Number of data points:
750
Wavenumber (cm-1)   Filter response
     8760.403000       0.000000
     8768.084200       0.000000
     8775.778900       0.000000
     8783.487000       0.000002
     8791.208800       0.000004
     8798.944100       0.000009
     8806.693100       0.000017
     8814.455700       0.000029
     8822.232000       0.000044
     8830.022100       0.000065
     8837.825900       0.000092
     8845.643500       0.000125
     8853.475000       0.000165
     8861.320300       0.000213
     8869.179600       0.000270
     8877.052800       0.000336
     8884.940000       0.000412
     8892.841300       0.000500
     8900.756600       0.000599
     8908.686000       0.000710
     8916.629500       0.000835
     8924.587200       0.000975
     8932.559200       0.001129
     8940.545400       0.001298
     8948.545900       0.001485
     8956.560700       0.001688
     8964.589900       0.001910
     8972.633500       0.002150
     8980.691500       0.002410
     8988.764000       0.002691
     8996.851100       0.002993
     9004.952700       0.003317
     9013.068900       0.003664
     9021.199800       0.004034
     9029.345400       0.004429
     9037.505600       0.004850
     9045.680700       0.005296
     9053.870500       0.005768
     9062.075200       0.006269
     9070.294800       0.006797
     9078.529300       0.007355
     9086.778700       0.007942
     9095.043200       0.008560
     9103.322700       0.009209
     9111.617300       0.009890
     9119.927000       0.010604
     9128.251900       0.011350
     9136.592100       0.012131
     9144.947400       0.012947
     9153.318100       0.013798
     9161.704100       0.014684
     9170.105500       0.015608
     9178.522300       0.016569
     9186.954500       0.017567
     9195.402300       0.018605
     9203.865600       0.019681
     9212.344500       0.020797
     9220.839100       0.021953
     9229.349300       0.023150
     9237.875300       0.024388
     9246.417000       0.025668
     9254.974500       0.026991
     9263.547900       0.028356
     9272.137200       0.029765
     9280.742500       0.031218
     9289.363700       0.032714
     9298.000900       0.034256
     9306.654300       0.035842
     9315.323700       0.037474
     9324.009300       0.039152
     9332.711200       0.040877
     9341.429200       0.042647
     9350.163600       0.044465
     9358.914400       0.046330
     9367.681500       0.048242
     9376.465100       0.050203
     9385.265100       0.052211
     9394.081700       0.054268
     9402.914900       0.056373
     9411.764700       0.058527
     9420.631200       0.060730
     9429.514400       0.062983
     9438.414300       0.065284
     9447.331100       0.067635
     9456.264800       0.070036
     9465.215300       0.072486
     9474.182900       0.074986
     9483.167400       0.077536
     9492.169000       0.080136
     9501.187600       0.082786
     9510.223500       0.085486
     9519.276500       0.088235
     9528.346800       0.091035
     9537.434400       0.093885
     9546.539400       0.096784
     9555.661700       0.099734
     9564.801500       0.102732
     9573.958800       0.105781
     9583.133700       0.108879
     9592.326100       0.112026
     9601.536200       0.115223
     9610.764100       0.118469
     9620.009600       0.121763
     9629.273000       0.125106
     9638.554200       0.128498
     9647.853400       0.131937
     9657.170400       0.135425
     9666.505600       0.138960
     9675.858700       0.142543
     9685.230000       0.146172
     9694.619500       0.149849
     9704.027200       0.153571
     9713.453100       0.157341
     9722.897400       0.161155
     9732.360100       0.165015
     9741.841200       0.168920
     9751.340800       0.172870
     9760.859000       0.176864
     9770.395700       0.180901
     9779.951100       0.184982
     9789.525200       0.189105
     9799.118100       0.193271
     9808.729800       0.197479
     9818.360300       0.201728
     9828.009800       0.206018
     9837.678300       0.210348
     9847.365800       0.214719
     9857.072400       0.219128
     9866.798200       0.223576
     9876.543200       0.228062
     9886.307500       0.232587
     9896.091000       0.237148
     9905.894000       0.241745
     9915.716400       0.246378
     9925.558300       0.251046
     9935.419800       0.255749
     9945.300800       0.260486
     9955.201600       0.265256
     9965.122100       0.270059
     9975.062300       0.274893
     9985.022500       0.279759
     9995.002500       0.284656
    10005.002500       0.289582
    10015.022500       0.294538
    10025.062700       0.299522
    10035.122900       0.304534
    10045.203400       0.309573
    10055.304200       0.314639
    10065.425300       0.319730
    10075.566800       0.324846
    10085.728700       0.329987
    10095.911200       0.335151
    10106.114200       0.340337
    10116.337900       0.345545
    10126.582300       0.350775
    10136.847400       0.356025
    10147.133400       0.361295
    10157.440300       0.366583
    10167.768200       0.371890
    10178.117000       0.377214
    10188.487000       0.382554
    10198.878100       0.387911
    10209.290500       0.393282
    10219.724100       0.398667
    10230.179000       0.404066
    10240.655400       0.409478
    10251.153300       0.414901
    10261.672700       0.420335
    10272.213700       0.425779
    10282.776300       0.431233
    10293.360800       0.436696
    10303.967000       0.442166
    10314.595200       0.447644
    10325.245200       0.453127
    10335.917300       0.458616
    10346.611500       0.464110
    10357.327800       0.469607
    10368.066400       0.475107
    10378.827200       0.480610
    10389.610400       0.486114
    10400.416000       0.491619
    10411.244100       0.497123
    10422.094800       0.502627
    10432.968200       0.508129
    10443.864200       0.513628
    10454.783100       0.519124
    10465.724800       0.524616
    10476.689400       0.530103
    10487.677000       0.535585
    10498.687700       0.541060
    10509.721500       0.546528
    10520.778500       0.551988
    10531.858900       0.557439
    10542.962600       0.562881
    10554.089700       0.568313
    10565.240400       0.573733
    10576.414600       0.579142
    10587.612500       0.584539
    10598.834100       0.589923
    10610.079600       0.595292
    10621.348900       0.600647
    10632.642200       0.605987
    10643.959600       0.611310
    10655.301000       0.616617
    10666.666700       0.621907
    10678.056600       0.627178
    10689.470900       0.632430
    10700.909600       0.637663
    10712.372800       0.642876
    10723.860600       0.648068
    10735.373100       0.653238
    10746.910300       0.658387
    10758.472300       0.663512
    10770.059200       0.668614
    10781.671200       0.673692
    10793.308100       0.678745
    10804.970300       0.683774
    10816.657700       0.688775
    10828.370300       0.693751
    10840.108400       0.698699
    10851.871900       0.703619
    10863.661100       0.708512
    10875.475800       0.713375
    10887.316300       0.718209
    10899.182600       0.723013
    10911.074700       0.727786
    10922.992900       0.732528
    10934.937100       0.737239
    10946.907500       0.741917
    10958.904100       0.746563
    10970.927000       0.751176
    10982.976400       0.755755
    10995.052200       0.760299
    11007.154700       0.764809
    11019.283700       0.769284
    11031.439600       0.773724
    11043.622300       0.778127
    11055.832000       0.782494
    11068.068600       0.786824
    11080.332400       0.791117
    11092.623400       0.795371
    11104.941700       0.799588
    11117.287400       0.803766
    11129.660500       0.807905
    11142.061300       0.812005
    11154.489700       0.816065
    11166.945800       0.820086
    11179.429800       0.824065
    11191.941800       0.828004
    11204.481800       0.831902
    11217.049900       0.835758
    11229.646300       0.839573
    11242.270900       0.843346
    11254.924000       0.847076
    11267.605600       0.850764
    11280.315800       0.854409
    11293.054800       0.858011
    11305.822500       0.861569
    11318.619100       0.865084
    11331.444800       0.868554
    11344.299500       0.871981
    11357.183400       0.875363
    11370.096600       0.878701
    11383.039300       0.881994
    11396.011400       0.885242
    11409.013100       0.888445
    11422.044500       0.891603
    11435.105800       0.894715
    11448.196900       0.897782
    11461.318100       0.900803
    11474.469300       0.903778
    11487.650800       0.906707
    11500.862600       0.909591
    11514.104800       0.912427
    11527.377500       0.915218
    11540.680900       0.917962
    11554.015000       0.920660
    11567.380000       0.923311
    11580.775900       0.925916
    11594.202900       0.928474
    11607.661100       0.930985
    11621.150500       0.933450
    11634.671300       0.935868
    11648.223600       0.938239
    11661.807600       0.940564
    11675.423200       0.942842
    11689.070700       0.945073
    11702.750100       0.947258
    11716.461600       0.949396
    11730.205300       0.951487
    11743.981200       0.953532
    11757.789500       0.955530
    11771.630400       0.957482
    11785.503800       0.959388
    11799.410000       0.961247
    11813.349100       0.963060
    11827.321100       0.964827
    11841.326200       0.966549
    11855.364600       0.968224
    11869.436200       0.969854
    11883.541300       0.971438
    11897.680000       0.972977
    11911.852300       0.974470
    11926.058400       0.975919
    11940.298500       0.977323
    11954.572600       0.978681
    11968.880900       0.979996
    11983.223500       0.981265
    11997.600500       0.982491
    12012.012000       0.983673
    12026.458200       0.984811
    12040.939200       0.985905
    12055.455100       0.986957
    12070.006000       0.987965
    12084.592100       0.988930
    12099.213600       0.989853
    12113.870400       0.990733
    12128.562800       0.991572
    12143.290800       0.992368
    12158.054700       0.993123
    12172.854500       0.993837
    12187.690400       0.994510
    12202.562500       0.995143
    12217.471000       0.995735
    12232.415900       0.996287
    12247.397400       0.996799
    12262.415700       0.997272
    12277.470800       0.997706
    12292.563000       0.998101
    12307.692300       0.998458
    12322.858900       0.998776
    12338.062900       0.999057
    12353.304500       0.999301
    12368.583800       0.999508
    12383.900900       0.999678
    12399.256000       0.999812
    12414.649300       0.999910
    12430.080800       0.999972
    12445.550700       1.000000
    12461.059200       0.999993
    12476.606400       0.999951
    12492.192400       0.999876
    12507.817400       0.999767
    12523.481500       0.999625
    12539.185000       0.999451
    12554.927800       0.999244
    12570.710200       0.999005
    12586.532400       0.998735
    12602.394500       0.998434
    12618.296500       0.998102
    12634.238800       0.997741
    12650.221400       0.997349
    12666.244500       0.996929
    12682.308200       0.996479
    12698.412700       0.996002
    12714.558200       0.995496
    12730.744700       0.994963
    12746.972600       0.994403
    12763.241900       0.993817
    12779.552700       0.993205
    12795.905300       0.992567
    12812.299800       0.991904
    12828.736400       0.991216
    12845.215200       0.990504
    12861.736300       0.989769
    12878.300100       0.989010
    12894.906500       0.988229
    12911.555800       0.987426
    12928.248200       0.986601
    12944.983800       0.985754
    12961.762800       0.984887
    12978.585300       0.983999
    12995.451600       0.983092
    13012.361700       0.982166
    13029.316000       0.981220
    13046.314400       0.980257
    13063.357300       0.979275
    13080.444700       0.978277
    13097.576900       0.977261
    13114.754100       0.976229
    13131.976400       0.975181
    13149.243900       0.974118
    13166.556900       0.973040
    13183.915600       0.971948
    13201.320100       0.970842
    13218.770700       0.969723
    13236.267400       0.968590
    13253.810500       0.967446
    13271.400100       0.966289
    13289.036500       0.965121
    13306.719900       0.963943
    13324.450400       0.962754
    13342.228200       0.961554
    13360.053400       0.960346
    13377.926400       0.959129
    13395.847300       0.957903
    13413.816200       0.956669
    13431.833400       0.955428
    13449.899100       0.954180
    13468.013500       0.952925
    13486.176700       0.951664
    13504.388900       0.950398
    13522.650400       0.949127
    13540.961400       0.947851
    13559.322000       0.946571
    13577.732500       0.945287
    13596.193100       0.944000
    13614.703900       0.942710
    13633.265200       0.941418
    13651.877100       0.940124
    13670.540000       0.938829
    13689.253900       0.937533
    13708.019200       0.936236
    13726.836000       0.934940
    13745.704500       0.933643
    13764.624900       0.932348
    13783.597500       0.931054
    13802.622500       0.929761
    13821.700100       0.928471
    13840.830400       0.927183
    13860.013900       0.925899
    13879.250500       0.924617
    13898.540700       0.923340
    13917.884500       0.922066
    13937.282200       0.920797
    13956.734100       0.919533
    13976.240400       0.918275
    13995.801300       0.917022
    14015.417000       0.915776
    14035.087700       0.914536
    14054.813800       0.913302
    14074.595400       0.912076
    14094.432700       0.910858
    14114.326000       0.909648
    14134.275600       0.908446
    14154.281700       0.907252
    14174.344400       0.906068
    14194.464200       0.904893
    14214.641100       0.903727
    14234.875400       0.902572
    14255.167500       0.901427
    14275.517500       0.900292
    14295.925700       0.899168
    14316.392300       0.898056
    14336.917600       0.896955
    14357.501800       0.895866
    14378.145200       0.894789
    14398.848100       0.893724
    14419.610700       0.892671
    14440.433200       0.891632
    14461.316000       0.890605
    14482.259200       0.889592
    14503.263200       0.888593
    14524.328200       0.887607
    14545.454500       0.886635
    14566.642400       0.885678
    14587.892000       0.884735
    14609.203800       0.883806
    14630.577900       0.882893
    14652.014700       0.881994
    14673.514300       0.881111
    14695.077100       0.880243
    14716.703500       0.879390
    14738.393500       0.878553
    14760.147600       0.877732
    14781.966000       0.876927
    14803.849000       0.876138
    14825.796900       0.875365
    14847.809900       0.874608
    14869.888500       0.873868
    14892.032800       0.873144
    14914.243100       0.872437
    14936.519800       0.871747
    14958.863100       0.871073
    14981.273400       0.870416
    15003.750900       0.869776
    15026.296000       0.869153
    15048.909000       0.868547
    15071.590100       0.867957
    15094.339600       0.867385
    15117.158000       0.866830
    15140.045400       0.866292
    15163.002300       0.865770
    15186.028900       0.865266
    15209.125500       0.864779
    15232.292500       0.864308
    15255.530100       0.863855
    15278.838800       0.863418
    15302.218800       0.862998
    15325.670500       0.862595
    15349.194200       0.862208
    15372.790200       0.861838
    15396.458800       0.861484
    15420.200500       0.861146
    15444.015400       0.860825
    15467.904100       0.860520
    15491.866800       0.860230
    15515.903800       0.859957
    15540.015500       0.859699
    15564.202300       0.859456
    15588.464500       0.859229
    15612.802500       0.859017
    15637.216600       0.858819
    15661.707100       0.858637
    15686.274500       0.858469
    15710.919100       0.858315
    15735.641200       0.858175
    15760.441300       0.858049
    15785.319700       0.857937
    15810.276700       0.857838
    15835.312700       0.857751
    15860.428200       0.857678
    15885.623500       0.857617
    15910.899000       0.857568
    15936.255000       0.857531
    15961.691900       0.857506
    15987.210200       0.857491
    16012.810200       0.857488
    16038.492400       0.857495
    16064.257000       0.857512
    16090.104600       0.857540
    16116.035500       0.857576
    16142.050000       0.857622
    16168.148700       0.857676
    16194.332000       0.857738
    16220.600200       0.857808
    16246.953700       0.857886
    16273.393000       0.857971
    16299.918500       0.858062
    16326.530600       0.858159
    16353.229800       0.858263
    16380.016400       0.858371
    16406.890900       0.858484
    16433.853700       0.858601
    16460.905300       0.858722
    16488.046200       0.858846
    16515.276600       0.858973
    16542.597200       0.859102
    16570.008300       0.859233
    16597.510400       0.859365
    16625.103900       0.859498
    16652.789300       0.859630
    16680.567100       0.859762
    16708.437800       0.859894
    16736.401700       0.860023
    16764.459300       0.860151
    16792.611300       0.860275
    16820.857900       0.860396
    16849.199700       0.860514
    16877.637100       0.860626
    16906.170800       0.860733
    16934.801000       0.860835
    16963.528400       0.860930
    16992.353400       0.861018
    17021.276600       0.861098
    17050.298400       0.861170
    17079.419300       0.861232
    17108.639900       0.861285
    17137.960600       0.861327
    17167.382000       0.861359
    17196.904600       0.861378
    17226.528900       0.861385
    17256.255400       0.861379
    17286.084700       0.861359
    17316.017300       0.861324
    17346.053800       0.861274
    17376.194600       0.861208
    17406.440400       0.861125
    17436.791600       0.861024
    17467.248900       0.860905
    17497.812800       0.860768
    17528.483800       0.860610
    17559.262500       0.860432
    17590.149500       0.860233
    17621.145400       0.860011
    17652.250700       0.859767
    17683.466000       0.859500
    17714.791900       0.859208
    17746.228900       0.858891
    17777.777800       0.858548
    17809.439000       0.858179
    17841.213200       0.857782
    17873.101000       0.857356
    17905.103000       0.856902
    17937.219700       0.856418
    17969.451900       0.855904
    18001.800200       0.855358
    18034.265100       0.854780
    18066.847300       0.854169
    18099.547500       0.853524
    18132.366300       0.852845
    18165.304300       0.852130
    18198.362100       0.851380
    18231.540600       0.850592
    18264.840200       0.849766
    18298.261700       0.848902
    18331.805700       0.847999
    18365.472900       0.847056
    18399.264000       0.846071
    18433.179700       0.845045
    18467.220700       0.843977
    18501.387600       0.842865
    18535.681200       0.841709
    18570.102100       0.840508
    18604.651200       0.839262
    18639.329000       0.837969
    18674.136300       0.836629
    18709.073900       0.835241
    18744.142500       0.833805
    18779.342700       0.832319
    18814.675400       0.830782
    18850.141400       0.829195
    18885.741300       0.827556
    18921.475900       0.825865
    18957.346000       0.824121
    18993.352300       0.822322
    19029.495700       0.820470
    19065.776900       0.818561
    19102.196800       0.816597
    19138.756000       0.814576
    19175.455400       0.812498
    19212.295900       0.810362
    19249.278200       0.808167
    19286.403100       0.805913
    19323.671500       0.803598
    19361.084200       0.801223
    19398.642100       0.798787
    19436.346000       0.796289
    19474.196700       0.793729
    19512.195100       0.791105
    19550.342100       0.788418
    19588.638600       0.785666
    19627.085400       0.782850
    19665.683400       0.779969
    19704.433500       0.777022
    19743.336600       0.774008
    19782.393700       0.770928
    19821.605600       0.767780
    19860.973200       0.764565
    19900.497500       0.761282
    19940.179500       0.757930
    19980.020000       0.754509
    20020.020000       0.751018
    20060.180500       0.747458
    20100.502500       0.743828
    20140.986900       0.740128
    20181.634700       0.736356
    20222.446900       0.732514
    20263.424500       0.728600
    20304.568500       0.724615
    20345.880000       0.720558
    20387.359800       0.716430
    20429.009200       0.712229
    20470.829100       0.707956
    20512.820500       0.703610
    20554.984600       0.699192
    20597.322300       0.694701
    20639.834900       0.690138
    20682.523300       0.685502
    20725.388600       0.680793
    20768.432000       0.676012
    20811.654500       0.671158
    20855.057400       0.666231
    20898.641600       0.661233
    20942.408400       0.656162
    20986.358900       0.651019
    21030.494200       0.645804
    21074.815600       0.640518
    21119.324200       0.635160
    21164.021200       0.629731
    21208.907700       0.624232
    21253.985100       0.618663
    21299.254500       0.613023
    21344.717200       0.607315
    21390.374300       0.601537
    21436.227200       0.595691
    21482.277100       0.589777
    21528.525300       0.583796
    21574.973000       0.577749
    21621.621600       0.571635
    21668.472400       0.565457
    21715.526600       0.559214
    21762.785600       0.552908
    21810.250800       0.546539
    21857.923500       0.540108
    21905.805000       0.533616
    21953.896800       0.527064
    22002.200200       0.520454
    22050.716600       0.513786
    22099.447500       0.507061
    22148.394200       0.500281
    22197.558300       0.493447
    22246.941000       0.486560
    22296.544000       0.479622
    22346.368700       0.472633
    22396.416600       0.465595
    22446.689100       0.458511
    22497.187900       0.451380
    22547.914300       0.444206
    22598.870100       0.436989
    22650.056600       0.429732
    22701.475600       0.422436
    22753.128600       0.415103
    22805.017100       0.407734
    22857.142900       0.400333
    22909.507400       0.392900
    22962.112500       0.385438
    23014.959700       0.377950
    23068.050700       0.370436
    23121.387300       0.362901
    23174.971000       0.355345
    23228.803700       0.347772
    23282.887100       0.340183
    23337.222900       0.332582
    23391.812900       0.324971
    23446.658900       0.317353
    23501.762600       0.309730
    23557.126000       0.302105
    23612.750900       0.294482
    23668.639100       0.286864
    23724.792400       0.279252
    23781.212800       0.271651
    23837.902300       0.264064
    23894.862600       0.256494
    23952.095800       0.248944
    24009.603800       0.241418
    24067.388700       0.233920
    24125.452400       0.226453
    24183.796900       0.219021
    24242.424200       0.211627
    24301.336600       0.204276
    24360.535900       0.196971
    24420.024400       0.189717
    24479.804200       0.182518
    24539.877300       0.175379
    24600.246000       0.168302
    24660.912500       0.161294
    24721.878900       0.154358
    24783.147500       0.147499
    24844.720500       0.140722
    24906.600200       0.134031
    24968.789000       0.127433
    25031.289100       0.120931
    25094.102900       0.114530
    25157.232700       0.108238
    25220.681000       0.102057
    25284.450100       0.095995
    25348.542500       0.090056
    25412.960600       0.084246
    25477.707000       0.078572
