10,   10, MVIRI VIS channel from srf_MET7_1998303_1998304_1801-Release_S10EE_10.dat
Number of data points:
793
Wavenumber (cm-1)   Filter response
     8442.380800       0.000000
     8449.514200       0.000000
     8456.659600       0.000004
     8463.817200       0.000052
     8470.986900       0.000153
     8478.168700       0.000307
     8485.362700       0.000511
     8492.569000       0.000763
     8499.787500       0.001064
     8507.018300       0.001410
     8514.261400       0.001802
     8521.516800       0.002237
     8528.784600       0.002715
     8536.064900       0.003234
     8543.357500       0.003793
     8550.662700       0.004391
     8557.980300       0.005027
     8565.310500       0.005700
     8572.653200       0.006409
     8580.008600       0.007153
     8587.376600       0.007931
     8594.757200       0.008743
     8602.150500       0.009587
     8609.556600       0.010463
     8616.975400       0.011370
     8624.407100       0.012307
     8631.851500       0.013274
     8639.308900       0.014269
     8646.779100       0.015293
     8654.262200       0.016344
     8661.758300       0.017423
     8669.267400       0.018528
     8676.789600       0.019659
     8684.324800       0.020815
     8691.873100       0.021997
     8699.434500       0.023203
     8707.009100       0.024434
     8714.596900       0.025688
     8722.198000       0.026966
     8729.812300       0.028267
     8737.439900       0.029591
     8745.080900       0.030937
     8752.735200       0.032306
     8760.403000       0.033696
     8768.084200       0.035109
     8775.778900       0.036542
     8783.487000       0.037997
     8791.208800       0.039473
     8798.944100       0.040970
     8806.693100       0.042487
     8814.455700       0.044025
     8822.232000       0.045584
     8830.022100       0.047163
     8837.825900       0.048762
     8845.643500       0.050382
     8853.475000       0.052021
     8861.320300       0.053680
     8869.179600       0.055359
     8877.052800       0.057059
     8884.940000       0.058778
     8892.841300       0.060517
     8900.756600       0.062275
     8908.686000       0.064054
     8916.629500       0.065852
     8924.587200       0.067671
     8932.559200       0.069509
     8940.545400       0.071367
     8948.545900       0.073245
     8956.560700       0.075143
     8964.589900       0.077061
     8972.633500       0.078998
     8980.691500       0.080957
     8988.764000       0.082935
     8996.851100       0.084933
     9004.952700       0.086952
     9013.068900       0.088991
     9021.199800       0.091051
     9029.345400       0.093132
     9037.505600       0.095232
     9045.680700       0.097354
     9053.870500       0.099496
     9062.075200       0.101660
     9070.294800       0.103844
     9078.529300       0.106050
     9086.778700       0.108276
     9095.043200       0.110524
     9103.322700       0.112794
     9111.617300       0.115085
     9119.927000       0.117397
     9128.251900       0.119731
     9136.592100       0.122087
     9144.947400       0.124465
     9153.318100       0.126864
     9161.704100       0.129286
     9170.105500       0.131730
     9178.522300       0.134196
     9186.954500       0.136685
     9195.402300       0.139195
     9203.865600       0.141729
     9212.344500       0.144285
     9220.839100       0.146863
     9229.349300       0.149465
     9237.875300       0.152089
     9246.417000       0.154736
     9254.974500       0.157406
     9263.547900       0.160099
     9272.137200       0.162814
     9280.742500       0.165554
     9289.363700       0.168316
     9298.000900       0.171101
     9306.654300       0.173910
     9315.323700       0.176742
     9324.009300       0.179597
     9332.711200       0.182476
     9341.429200       0.185378
     9350.163600       0.188303
     9358.914400       0.191252
     9367.681500       0.194224
     9376.465100       0.197220
     9385.265100       0.200239
     9394.081700       0.203282
     9402.914900       0.206348
     9411.764700       0.209437
     9420.631200       0.212550
     9429.514400       0.215686
     9438.414300       0.218845
     9447.331100       0.222027
     9456.264800       0.225233
     9465.215300       0.228463
     9474.182900       0.231714
     9483.167400       0.234990
     9492.169000       0.238288
     9501.187600       0.241609
     9510.223500       0.244953
     9519.276500       0.248319
     9528.346800       0.251709
     9537.434400       0.255121
     9546.539400       0.258555
     9555.661700       0.262011
     9564.801500       0.265490
     9573.958800       0.268991
     9583.133700       0.272514
     9592.326100       0.276059
     9601.536200       0.279625
     9610.764100       0.283213
     9620.009600       0.286822
     9629.273000       0.290453
     9638.554200       0.294104
     9647.853400       0.297777
     9657.170400       0.301470
     9666.505600       0.305184
     9675.858700       0.308918
     9685.230000       0.312672
     9694.619500       0.316446
     9704.027200       0.320240
     9713.453100       0.324053
     9722.897400       0.327886
     9732.360100       0.331738
     9741.841200       0.335608
     9751.340800       0.339497
     9760.859000       0.343405
     9770.395700       0.347331
     9779.951100       0.351274
     9789.525200       0.355235
     9799.118100       0.359214
     9808.729800       0.363209
     9818.360300       0.367221
     9828.009800       0.371250
     9837.678300       0.375295
     9847.365800       0.379356
     9857.072400       0.383432
     9866.798200       0.387524
     9876.543200       0.391630
     9886.307500       0.395752
     9896.091000       0.399888
     9905.894000       0.404038
     9915.716400       0.408201
     9925.558300       0.412378
     9935.419800       0.416568
     9945.300800       0.420771
     9955.201600       0.424986
     9965.122100       0.429213
     9975.062300       0.433452
     9985.022500       0.437702
     9995.002500       0.441963
    10005.002500       0.446234
    10015.022500       0.450516
    10025.062700       0.454807
    10035.122900       0.459108
    10045.203400       0.463418
    10055.304200       0.467737
    10065.425300       0.472064
    10075.566800       0.476399
    10085.728700       0.480741
    10095.911200       0.485091
    10106.114200       0.489447
    10116.337900       0.493809
    10126.582300       0.498178
    10136.847400       0.502551
    10147.133400       0.506930
    10157.440300       0.511314
    10167.768200       0.515701
    10178.117000       0.520093
    10188.487000       0.524487
    10198.878100       0.528885
    10209.290500       0.533285
    10219.724100       0.537687
    10230.179000       0.542091
    10240.655400       0.546497
    10251.153300       0.550902
    10261.672700       0.555309
    10272.213700       0.559715
    10282.776300       0.564120
    10293.360800       0.568525
    10303.967000       0.572928
    10314.595200       0.577329
    10325.245200       0.581728
    10335.917300       0.586124
    10346.611500       0.590517
    10357.327800       0.594906
    10368.066400       0.599291
    10378.827200       0.603671
    10389.610400       0.608047
    10400.416000       0.612416
    10411.244100       0.616780
    10422.094800       0.621138
    10432.968200       0.625489
    10443.864200       0.629832
    10454.783100       0.634168
    10465.724800       0.638495
    10476.689400       0.642814
    10487.677000       0.647124
    10498.687700       0.651424
    10509.721500       0.655714
    10520.778500       0.659994
    10531.858900       0.664262
    10542.962600       0.668520
    10554.089700       0.672766
    10565.240400       0.676999
    10576.414600       0.681220
    10587.612500       0.685427
    10598.834100       0.689622
    10610.079600       0.693802
    10621.348900       0.697967
    10632.642200       0.702118
    10643.959600       0.706254
    10655.301000       0.710374
    10666.666700       0.714477
    10678.056600       0.718564
    10689.470900       0.722634
    10700.909600       0.726687
    10712.372800       0.730721
    10723.860600       0.734738
    10735.373100       0.738735
    10746.910300       0.742714
    10758.472300       0.746673
    10770.059200       0.750612
    10781.671200       0.754531
    10793.308100       0.758429
    10804.970300       0.762306
    10816.657700       0.766161
    10828.370300       0.769995
    10840.108400       0.773806
    10851.871900       0.777595
    10863.661100       0.781360
    10875.475800       0.785102
    10887.316300       0.788820
    10899.182600       0.792514
    10911.074700       0.796184
    10922.992900       0.799828
    10934.937100       0.803448
    10946.907500       0.807041
    10958.904100       0.810609
    10970.927000       0.814150
    10982.976400       0.817665
    10995.052200       0.821153
    11007.154700       0.824613
    11019.283700       0.828046
    11031.439600       0.831450
    11043.622300       0.834827
    11055.832000       0.838175
    11068.068600       0.841493
    11080.332400       0.844783
    11092.623400       0.848043
    11104.941700       0.851274
    11117.287400       0.854474
    11129.660500       0.857643
    11142.061300       0.860783
    11154.489700       0.863891
    11166.945800       0.866968
    11179.429800       0.870013
    11191.941800       0.873027
    11204.481800       0.876009
    11217.049900       0.878958
    11229.646300       0.881875
    11242.270900       0.884760
    11254.924000       0.887611
    11267.605600       0.890429
    11280.315800       0.893214
    11293.054800       0.895965
    11305.822500       0.898683
    11318.619100       0.901366
    11331.444800       0.904016
    11344.299500       0.906631
    11357.183400       0.909211
    11370.096600       0.911757
    11383.039300       0.914267
    11396.011400       0.916743
    11409.013100       0.919183
    11422.044500       0.921588
    11435.105800       0.923958
    11448.196900       0.926291
    11461.318100       0.928589
    11474.469300       0.930851
    11487.650800       0.933077
    11500.862600       0.935267
    11514.104800       0.937420
    11527.377500       0.939537
    11540.680900       0.941618
    11554.015000       0.943662
    11567.380000       0.945670
    11580.775900       0.947640
    11594.202900       0.949574
    11607.661100       0.951471
    11621.150500       0.953331
    11634.671300       0.955155
    11648.223600       0.956941
    11661.807600       0.958690
    11675.423200       0.960402
    11689.070700       0.962077
    11702.750100       0.963715
    11716.461600       0.965315
    11730.205300       0.966879
    11743.981200       0.968405
    11757.789500       0.969895
    11771.630400       0.971347
    11785.503800       0.972762
    11799.410000       0.974140
    11813.349100       0.975481
    11827.321100       0.976785
    11841.326200       0.978052
    11855.364600       0.979282
    11869.436200       0.980476
    11883.541300       0.981632
    11897.680000       0.982752
    11911.852300       0.983836
    11926.058400       0.984883
    11940.298500       0.985893
    11954.572600       0.986867
    11968.880900       0.987805
    11983.223500       0.988707
    11997.600500       0.989573
    12012.012000       0.990403
    12026.458200       0.991197
    12040.939200       0.991956
    12055.455100       0.992679
    12070.006000       0.993367
    12084.592100       0.994020
    12099.213600       0.994638
    12113.870400       0.995221
    12128.562800       0.995769
    12143.290800       0.996283
    12158.054700       0.996763
    12172.854500       0.997209
    12187.690400       0.997620
    12202.562500       0.997999
    12217.471000       0.998343
    12232.415900       0.998655
    12247.397400       0.998933
    12262.415700       0.999179
    12277.470800       0.999392
    12292.563000       0.999572
    12307.692300       0.999721
    12322.858900       0.999838
    12338.062900       0.999923
    12353.304500       0.999977
    12368.583800       1.000000
    12383.900900       0.999992
    12399.256000       0.999954
    12414.649300       0.999885
    12430.080800       0.999787
    12445.550700       0.999659
    12461.059200       0.999501
    12476.606400       0.999315
    12492.192400       0.999099
    12507.817400       0.998856
    12523.481500       0.998584
    12539.185000       0.998285
    12554.927800       0.997958
    12570.710200       0.997604
    12586.532400       0.997223
    12602.394500       0.996815
    12618.296500       0.996382
    12634.238800       0.995923
    12650.221400       0.995438
    12666.244500       0.994929
    12682.308200       0.994394
    12698.412700       0.993836
    12714.558200       0.993253
    12730.744700       0.992647
    12746.972600       0.992018
    12763.241900       0.991365
    12779.552700       0.990691
    12795.905300       0.989994
    12812.299800       0.989276
    12828.736400       0.988536
    12845.215200       0.987776
    12861.736300       0.986995
    12878.300100       0.986194
    12894.906500       0.985373
    12911.555800       0.984533
    12928.248200       0.983674
    12944.983800       0.982797
    12961.762800       0.981902
    12978.585300       0.980989
    12995.451600       0.980059
    13012.361700       0.979112
    13029.316000       0.978149
    13046.314400       0.977170
    13063.357300       0.976176
    13080.444700       0.975166
    13097.576900       0.974142
    13114.754100       0.973104
    13131.976400       0.972052
    13149.243900       0.970987
    13166.556900       0.969909
    13183.915600       0.968819
    13201.320100       0.967716
    13218.770700       0.966602
    13236.267400       0.965477
    13253.810500       0.964342
    13271.400100       0.963196
    13289.036500       0.962041
    13306.719900       0.960876
    13324.450400       0.959703
    13342.228200       0.958521
    13360.053400       0.957331
    13377.926400       0.956134
    13395.847300       0.954930
    13413.816200       0.953719
    13431.833400       0.952502
    13449.899100       0.951279
    13468.013500       0.950052
    13486.176700       0.948819
    13504.388900       0.947582
    13522.650400       0.946342
    13540.961400       0.945098
    13559.322000       0.943851
    13577.732500       0.942601
    13596.193100       0.941350
    13614.703900       0.940096
    13633.265200       0.938842
    13651.877100       0.937587
    13670.540000       0.936332
    13689.253900       0.935077
    13708.019200       0.933822
    13726.836000       0.932568
    13745.704500       0.931316
    13764.624900       0.930066
    13783.597500       0.928818
    13802.622500       0.927573
    13821.700100       0.926331
    13840.830400       0.925093
    13860.013900       0.923859
    13879.250500       0.922629
    13898.540700       0.921404
    13917.884500       0.920184
    13937.282200       0.918970
    13956.734100       0.917762
    13976.240400       0.916561
    13995.801300       0.915366
    14015.417000       0.914179
    14035.087700       0.912999
    14054.813800       0.911827
    14074.595400       0.910664
    14094.432700       0.909510
    14114.326000       0.908365
    14134.275600       0.907229
    14154.281700       0.906104
    14174.344400       0.904989
    14194.464200       0.903884
    14214.641100       0.902791
    14234.875400       0.901708
    14255.167500       0.900638
    14275.517500       0.899580
    14295.925700       0.898534
    14316.392300       0.897500
    14336.917600       0.896480
    14357.501800       0.895473
    14378.145200       0.894480
    14398.848100       0.893501
    14419.610700       0.892536
    14440.433200       0.891586
    14461.316000       0.890651
    14482.259200       0.889731
    14503.263200       0.888826
    14524.328200       0.887937
    14545.454500       0.887064
    14566.642400       0.886208
    14587.892000       0.885367
    14609.203800       0.884544
    14630.577900       0.883738
    14652.014700       0.882948
    14673.514300       0.882177
    14695.077100       0.881423
    14716.703500       0.880687
    14738.393500       0.879969
    14760.147600       0.879269
    14781.966000       0.878588
    14803.849000       0.877926
    14825.796900       0.877282
    14847.809900       0.876657
    14869.888500       0.876052
    14892.032800       0.875466
    14914.243100       0.874900
    14936.519800       0.874353
    14958.863100       0.873826
    14981.273400       0.873318
    15003.750900       0.872831
    15026.296000       0.872364
    15048.909000       0.871917
    15071.590100       0.871491
    15094.339600       0.871084
    15117.158000       0.870699
    15140.045400       0.870333
    15163.002300       0.869989
    15186.028900       0.869665
    15209.125500       0.869361
    15232.292500       0.869078
    15255.530100       0.868816
    15278.838800       0.868575
    15302.218800       0.868354
    15325.670500       0.868154
    15349.194200       0.867975
    15372.790200       0.867816
    15396.458800       0.867678
    15420.200500       0.867561
    15444.015400       0.867464
    15467.904100       0.867387
    15491.866800       0.867331
    15515.903800       0.867296
    15540.015500       0.867280
    15564.202300       0.867284
    15588.464500       0.867309
    15612.802500       0.867353
    15637.216600       0.867417
    15661.707100       0.867500
    15686.274500       0.867603
    15710.919100       0.867726
    15735.641200       0.867867
    15760.441300       0.868027
    15785.319700       0.868206
    15810.276700       0.868403
    15835.312700       0.868619
    15860.428200       0.868853
    15885.623500       0.869104
    15910.899000       0.869373
    15936.255000       0.869660
    15961.691900       0.869963
    15987.210200       0.870283
    16012.810200       0.870620
    16038.492400       0.870973
    16064.257000       0.871342
    16090.104600       0.871726
    16116.035500       0.872125
    16142.050000       0.872540
    16168.148700       0.872969
    16194.332000       0.873412
    16220.600200       0.873869
    16246.953700       0.874340
    16273.393000       0.874823
    16299.918500       0.875319
    16326.530600       0.875827
    16353.229800       0.876347
    16380.016400       0.876879
    16406.890900       0.877421
    16433.853700       0.877974
    16460.905300       0.878537
    16488.046200       0.879110
    16515.276600       0.879691
    16542.597200       0.880281
    16570.008300       0.880879
    16597.510400       0.881485
    16625.103900       0.882097
    16652.789300       0.882716
    16680.567100       0.883341
    16708.437800       0.883972
    16736.401700       0.884607
    16764.459300       0.885247
    16792.611300       0.885890
    16820.857900       0.886536
    16849.199700       0.887184
    16877.637100       0.887835
    16906.170800       0.888487
    16934.801000       0.889139
    16963.528400       0.889791
    16992.353400       0.890443
    17021.276600       0.891093
    17050.298400       0.891741
    17079.419300       0.892386
    17108.639900       0.893028
    17137.960600       0.893666
    17167.382000       0.894300
    17196.904600       0.894927
    17226.528900       0.895549
    17256.255400       0.896163
    17286.084700       0.896770
    17316.017300       0.897368
    17346.053800       0.897957
    17376.194600       0.898536
    17406.440400       0.899105
    17436.791600       0.899662
    17467.248900       0.900206
    17497.812800       0.900738
    17528.483800       0.901255
    17559.262500       0.901758
    17590.149500       0.902246
    17621.145400       0.902717
    17652.250700       0.903171
    17683.466000       0.903607
    17714.791900       0.904024
    17746.228900       0.904422
    17777.777800       0.904799
    17809.439000       0.905154
    17841.213200       0.905488
    17873.101000       0.905798
    17905.103000       0.906084
    17937.219700       0.906345
    17969.451900       0.906581
    18001.800200       0.906790
    18034.265100       0.906972
    18066.847300       0.907125
    18099.547500       0.907248
    18132.366300       0.907342
    18165.304300       0.907404
    18198.362100       0.907435
    18231.540600       0.907432
    18264.840200       0.907395
    18298.261700       0.907324
    18331.805700       0.907217
    18365.472900       0.907073
    18399.264000       0.906892
    18433.179700       0.906672
    18467.220700       0.906413
    18501.387600       0.906113
    18535.681200       0.905772
    18570.102100       0.905389
    18604.651200       0.904963
    18639.329000       0.904492
    18674.136300       0.903977
    18709.073900       0.903415
    18744.142500       0.902807
    18779.342700       0.902151
    18814.675400       0.901446
    18850.141400       0.900691
    18885.741300       0.899886
    18921.475900       0.899030
    18957.346000       0.898121
    18993.352300       0.897158
    19029.495700       0.896141
    19065.776900       0.895070
    19102.196800       0.893942
    19138.756000       0.892757
    19175.455400       0.891514
    19212.295900       0.890212
    19249.278200       0.888851
    19286.403100       0.887429
    19323.671500       0.885946
    19361.084200       0.884401
    19398.642100       0.882792
    19436.346000       0.881120
    19474.196700       0.879383
    19512.195100       0.877580
    19550.342100       0.875711
    19588.638600       0.873774
    19627.085400       0.871769
    19665.683400       0.869696
    19704.433500       0.867553
    19743.336600       0.865339
    19782.393700       0.863054
    19821.605600       0.860697
    19860.973200       0.858268
    19900.497500       0.855765
    19940.179500       0.853188
    19980.020000       0.850537
    20020.020000       0.847809
    20060.180500       0.845006
    20100.502500       0.842126
    20140.986900       0.839168
    20181.634700       0.836132
    20222.446900       0.833018
    20263.424500       0.829824
    20304.568500       0.826551
    20345.880000       0.823197
    20387.359800       0.819762
    20429.009200       0.816246
    20470.829100       0.812647
    20512.820500       0.808967
    20554.984600       0.805203
    20597.322300       0.801357
    20639.834900       0.797426
    20682.523300       0.793412
    20725.388600       0.789313
    20768.432000       0.785130
    20811.654500       0.780861
    20855.057400       0.776507
    20898.641600       0.772067
    20942.408400       0.767542
    20986.358900       0.762930
    21030.494200       0.758232
    21074.815600       0.753448
    21119.324200       0.748578
    21164.021200       0.743620
    21208.907700       0.738576
    21253.985100       0.733446
    21299.254500       0.728228
    21344.717200       0.722924
    21390.374300       0.717534
    21436.227200       0.712057
    21482.277100       0.706494
    21528.525300       0.700844
    21574.973000       0.695109
    21621.621600       0.689288
    21668.472400       0.683381
    21715.526600       0.677389
    21762.785600       0.671313
    21810.250800       0.665152
    21857.923500       0.658908
    21905.805000       0.652579
    21953.896800       0.646168
    22002.200200       0.639675
    22050.716600       0.633100
    22099.447500       0.626444
    22148.394200       0.619707
    22197.558300       0.612892
    22246.941000       0.605997
    22296.544000       0.599024
    22346.368700       0.591974
    22396.416600       0.584848
    22446.689100       0.577646
    22497.187900       0.570371
    22547.914300       0.563023
    22598.870100       0.555603
    22650.056600       0.548112
    22701.475600       0.540552
    22753.128600       0.532923
    22805.017100       0.525228
    22857.142900       0.517468
    22909.507400       0.509644
    22962.112500       0.501757
    23014.959700       0.493810
    23068.050700       0.485804
    23121.387300       0.477741
    23174.971000       0.469622
    23228.803700       0.461450
    23282.887100       0.453226
    23337.222900       0.444952
    23391.812900       0.436631
    23446.658900       0.428264
    23501.762600       0.419854
    23557.126000       0.411403
    23612.750900       0.402913
    23668.639100       0.394387
    23724.792400       0.385827
    23781.212800       0.377236
    23837.902300       0.368616
    23894.862600       0.359970
    23952.095800       0.351301
    24009.603800       0.342612
    24067.388700       0.333906
    24125.452400       0.325186
    24183.796900       0.316454
    24242.424200       0.307714
    24301.336600       0.298970
    24360.535900       0.290224
    24420.024400       0.281481
    24479.804200       0.272743
    24539.877300       0.264015
    24600.246000       0.255300
    24660.912500       0.246601
    24721.878900       0.237924
    24783.147500       0.229271
    24844.720500       0.220648
    24906.600200       0.212057
    24968.789000       0.203504
    25031.289100       0.194992
    25094.102900       0.186527
    25157.232700       0.178113
    25220.681000       0.169754
    25284.450100       0.161456
    25348.542500       0.153223
    25412.960600       0.145060
    25477.707000       0.136974
