46,   46, MVIRI VIS channel from srf_MET5_1996348_1996349_1801-Release_S10EL_10.dat
Number of data points:
806
Wavenumber (cm-1)   Filter response
     8350.730700       0.000000
     8357.710000       0.000000
     8364.701000       0.000000
     8371.703600       0.000002
     8378.718100       0.000004
     8385.744200       0.000009
     8392.782200       0.000016
     8399.832000       0.000027
     8406.893700       0.000041
     8413.967200       0.000059
     8421.052600       0.000082
     8428.150000       0.000110
     8435.259400       0.000143
     8442.380800       0.000183
     8449.514200       0.000229
     8456.659600       0.000282
     8463.817200       0.000341
     8470.986900       0.000409
     8478.168700       0.000484
     8485.362700       0.000568
     8492.569000       0.000660
     8499.787500       0.000762
     8507.018300       0.000872
     8514.261400       0.000992
     8521.516800       0.001122
     8528.784600       0.001262
     8536.064900       0.001413
     8543.357500       0.001574
     8550.662700       0.001746
     8557.980300       0.001930
     8565.310500       0.002125
     8572.653200       0.002331
     8580.008600       0.002550
     8587.376600       0.002780
     8594.757200       0.003024
     8602.150500       0.003279
     8609.556600       0.003548
     8616.975400       0.003829
     8624.407100       0.004123
     8631.851500       0.004431
     8639.308900       0.004753
     8646.779100       0.005088
     8654.262200       0.005437
     8661.758300       0.005800
     8669.267400       0.006177
     8676.789600       0.006569
     8684.324800       0.006975
     8691.873100       0.007395
     8699.434500       0.007831
     8707.009100       0.008282
     8714.596900       0.008747
     8722.198000       0.009228
     8729.812300       0.009725
     8737.439900       0.010236
     8745.080900       0.010764
     8752.735200       0.011307
     8760.403000       0.011866
     8768.084200       0.012441
     8775.778900       0.013033
     8783.487000       0.013640
     8791.208800       0.014264
     8798.944100       0.014905
     8806.693100       0.015562
     8814.455700       0.016236
     8822.232000       0.016927
     8830.022100       0.017634
     8837.825900       0.018359
     8845.643500       0.019101
     8853.475000       0.019861
     8861.320300       0.020637
     8869.179600       0.021432
     8877.052800       0.022244
     8884.940000       0.023073
     8892.841300       0.023921
     8900.756600       0.024786
     8908.686000       0.025670
     8916.629500       0.026572
     8924.587200       0.027492
     8932.559200       0.028430
     8940.545400       0.029387
     8948.545900       0.030363
     8956.560700       0.031357
     8964.589900       0.032370
     8972.633500       0.033402
     8980.691500       0.034452
     8988.764000       0.035522
     8996.851100       0.036612
     9004.952700       0.037720
     9013.068900       0.038848
     9021.199800       0.039995
     9029.345400       0.041162
     9037.505600       0.042349
     9045.680700       0.043556
     9053.870500       0.044782
     9062.075200       0.046028
     9070.294800       0.047295
     9078.529300       0.048582
     9086.778700       0.049889
     9095.043200       0.051216
     9103.322700       0.052564
     9111.617300       0.053933
     9119.927000       0.055322
     9128.251900       0.056732
     9136.592100       0.058162
     9144.947400       0.059614
     9153.318100       0.061087
     9161.704100       0.062581
     9170.105500       0.064096
     9178.522300       0.065632
     9186.954500       0.067190
     9195.402300       0.068770
     9203.865600       0.070371
     9212.344500       0.071993
     9220.839100       0.073638
     9229.349300       0.075304
     9237.875300       0.076992
     9246.417000       0.078702
     9254.974500       0.080434
     9263.547900       0.082189
     9272.137200       0.083965
     9280.742500       0.085764
     9289.363700       0.087585
     9298.000900       0.089429
     9306.654300       0.091295
     9315.323700       0.093184
     9324.009300       0.095096
     9332.711200       0.097030
     9341.429200       0.098987
     9350.163600       0.100967
     9358.914400       0.102969
     9367.681500       0.104995
     9376.465100       0.107044
     9385.265100       0.109115
     9394.081700       0.111210
     9402.914900       0.113328
     9411.764700       0.115469
     9420.631200       0.117634
     9429.514400       0.119822
     9438.414300       0.122033
     9447.331100       0.124267
     9456.264800       0.126525
     9465.215300       0.128807
     9474.182900       0.131111
     9483.167400       0.133440
     9492.169000       0.135791
     9501.187600       0.138167
     9510.223500       0.140566
     9519.276500       0.142988
     9528.346800       0.145434
     9537.434400       0.147904
     9546.539400       0.150397
     9555.661700       0.152914
     9564.801500       0.155455
     9573.958800       0.158019
     9583.133700       0.160606
     9592.326100       0.163217
     9601.536200       0.165852
     9610.764100       0.168510
     9620.009600       0.171192
     9629.273000       0.173898
     9638.554200       0.176627
     9647.853400       0.179379
     9657.170400       0.182154
     9666.505600       0.184953
     9675.858700       0.187776
     9685.230000       0.190621
     9694.619500       0.193490
     9704.027200       0.196382
     9713.453100       0.199297
     9722.897400       0.202236
     9732.360100       0.205197
     9741.841200       0.208181
     9751.340800       0.211188
     9760.859000       0.214218
     9770.395700       0.217270
     9779.951100       0.220345
     9789.525200       0.223443
     9799.118100       0.226563
     9808.729800       0.229705
     9818.360300       0.232870
     9828.009800       0.236057
     9837.678300       0.239265
     9847.365800       0.242496
     9857.072400       0.245749
     9866.798200       0.249023
     9876.543200       0.252318
     9886.307500       0.255636
     9896.091000       0.258974
     9905.894000       0.262333
     9915.716400       0.265714
     9925.558300       0.269115
     9935.419800       0.272538
     9945.300800       0.275980
     9955.201600       0.279443
     9965.122100       0.282927
     9975.062300       0.286430
     9985.022500       0.289953
     9995.002500       0.293496
    10005.002500       0.297059
    10015.022500       0.300641
    10025.062700       0.304242
    10035.122900       0.307861
    10045.203400       0.311500
    10055.304200       0.315158
    10065.425300       0.318833
    10075.566800       0.322527
    10085.728700       0.326239
    10095.911200       0.329969
    10106.114200       0.333716
    10116.337900       0.337480
    10126.582300       0.341262
    10136.847400       0.345060
    10147.133400       0.348875
    10157.440300       0.352706
    10167.768200       0.356553
    10178.117000       0.360416
    10188.487000       0.364295
    10198.878100       0.368189
    10209.290500       0.372098
    10219.724100       0.376022
    10230.179000       0.379961
    10240.655400       0.383913
    10251.153300       0.387880
    10261.672700       0.391861
    10272.213700       0.395854
    10282.776300       0.399861
    10293.360800       0.403882
    10303.967000       0.407914
    10314.595200       0.411959
    10325.245200       0.416015
    10335.917300       0.420084
    10346.611500       0.424163
    10357.327800       0.428254
    10368.066400       0.432356
    10378.827200       0.436467
    10389.610400       0.440589
    10400.416000       0.444721
    10411.244100       0.448862
    10422.094800       0.453012
    10432.968200       0.457171
    10443.864200       0.461339
    10454.783100       0.465514
    10465.724800       0.469698
    10476.689400       0.473888
    10487.677000       0.478086
    10498.687700       0.482290
    10509.721500       0.486501
    10520.778500       0.490718
    10531.858900       0.494940
    10542.962600       0.499168
    10554.089700       0.503401
    10565.240400       0.507638
    10576.414600       0.511879
    10587.612500       0.516124
    10598.834100       0.520373
    10610.079600       0.524625
    10621.348900       0.528879
    10632.642200       0.533136
    10643.959600       0.537395
    10655.301000       0.541655
    10666.666700       0.545916
    10678.056600       0.550178
    10689.470900       0.554441
    10700.909600       0.558703
    10712.372800       0.562965
    10723.860600       0.567227
    10735.373100       0.571487
    10746.910300       0.575746
    10758.472300       0.580003
    10770.059200       0.584257
    10781.671200       0.588509
    10793.308100       0.592757
    10804.970300       0.597003
    10816.657700       0.601244
    10828.370300       0.605480
    10840.108400       0.609713
    10851.871900       0.613939
    10863.661100       0.618161
    10875.475800       0.622377
    10887.316300       0.626586
    10899.182600       0.630788
    10911.074700       0.634984
    10922.992900       0.639171
    10934.937100       0.643351
    10946.907500       0.647523
    10958.904100       0.651685
    10970.927000       0.655839
    10982.976400       0.659983
    10995.052200       0.664117
    11007.154700       0.668241
    11019.283700       0.672354
    11031.439600       0.676456
    11043.622300       0.680546
    11055.832000       0.684625
    11068.068600       0.688691
    11080.332400       0.692744
    11092.623400       0.696784
    11104.941700       0.700811
    11117.287400       0.704824
    11129.660500       0.708822
    11142.061300       0.712806
    11154.489700       0.716775
    11166.945800       0.720728
    11179.429800       0.724665
    11191.941800       0.728587
    11204.481800       0.732491
    11217.049900       0.736379
    11229.646300       0.740249
    11242.270900       0.744101
    11254.924000       0.747936
    11267.605600       0.751751
    11280.315800       0.755548
    11293.054800       0.759326
    11305.822500       0.763084
    11318.619100       0.766822
    11331.444800       0.770540
    11344.299500       0.774237
    11357.183400       0.777913
    11370.096600       0.781568
    11383.039300       0.785200
    11396.011400       0.788811
    11409.013100       0.792400
    11422.044500       0.795965
    11435.105800       0.799508
    11448.196900       0.803027
    11461.318100       0.806522
    11474.469300       0.809993
    11487.650800       0.813440
    11500.862600       0.816862
    11514.104800       0.820259
    11527.377500       0.823631
    11540.680900       0.826977
    11554.015000       0.830297
    11567.380000       0.833591
    11580.775900       0.836858
    11594.202900       0.840098
    11607.661100       0.843311
    11621.150500       0.846497
    11634.671300       0.849654
    11648.223600       0.852784
    11661.807600       0.855886
    11675.423200       0.858959
    11689.070700       0.862003
    11702.750100       0.865018
    11716.461600       0.868004
    11730.205300       0.870960
    11743.981200       0.873886
    11757.789500       0.876783
    11771.630400       0.879648
    11785.503800       0.882484
    11799.410000       0.885288
    11813.349100       0.888062
    11827.321100       0.890804
    11841.326200       0.893515
    11855.364600       0.896195
    11869.436200       0.898842
    11883.541300       0.901458
    11897.680000       0.904041
    11911.852300       0.906592
    11926.058400       0.909110
    11940.298500       0.911595
    11954.572600       0.914048
    11968.880900       0.916467
    11983.223500       0.918853
    11997.600500       0.921206
    12012.012000       0.923525
    12026.458200       0.925810
    12040.939200       0.928062
    12055.455100       0.930280
    12070.006000       0.932463
    12084.592100       0.934612
    12099.213600       0.936727
    12113.870400       0.938807
    12128.562800       0.940853
    12143.290800       0.942865
    12158.054700       0.944841
    12172.854500       0.946783
    12187.690400       0.948689
    12202.562500       0.950561
    12217.471000       0.952398
    12232.415900       0.954199
    12247.397400       0.955965
    12262.415700       0.957696
    12277.470800       0.959392
    12292.563000       0.961053
    12307.692300       0.962678
    12322.858900       0.964268
    12338.062900       0.965822
    12353.304500       0.967341
    12368.583800       0.968825
    12383.900900       0.970273
    12399.256000       0.971685
    12414.649300       0.973063
    12430.080800       0.974405
    12445.550700       0.975711
    12461.059200       0.976983
    12476.606400       0.978219
    12492.192400       0.979419
    12507.817400       0.980585
    12523.481500       0.981715
    12539.185000       0.982810
    12554.927800       0.983870
    12570.710200       0.984896
    12586.532400       0.985886
    12602.394500       0.986841
    12618.296500       0.987762
    12634.238800       0.988648
    12650.221400       0.989500
    12666.244500       0.990317
    12682.308200       0.991100
    12698.412700       0.991849
    12714.558200       0.992564
    12730.744700       0.993245
    12746.972600       0.993892
    12763.241900       0.994505
    12779.552700       0.995085
    12795.905300       0.995632
    12812.299800       0.996145
    12828.736400       0.996625
    12845.215200       0.997073
    12861.736300       0.997488
    12878.300100       0.997870
    12894.906500       0.998220
    12911.555800       0.998538
    12928.248200       0.998824
    12944.983800       0.999079
    12961.762800       0.999302
    12978.585300       0.999493
    12995.451600       0.999654
    13012.361700       0.999784
    13029.316000       0.999883
    13046.314400       0.999952
    13063.357300       0.999991
    13080.444700       1.000000
    13097.576900       0.999979
    13114.754100       0.999929
    13131.976400       0.999850
    13149.243900       0.999743
    13166.556900       0.999606
    13183.915600       0.999442
    13201.320100       0.999249
    13218.770700       0.999029
    13236.267400       0.998781
    13253.810500       0.998506
    13271.400100       0.998205
    13289.036500       0.997877
    13306.719900       0.997522
    13324.450400       0.997142
    13342.228200       0.996737
    13360.053400       0.996306
    13377.926400       0.995850
    13395.847300       0.995370
    13413.816200       0.994865
    13431.833400       0.994337
    13449.899100       0.993785
    13468.013500       0.993209
    13486.176700       0.992611
    13504.388900       0.991991
    13522.650400       0.991348
    13540.961400       0.990683
    13559.322000       0.989997
    13577.732500       0.989290
    13596.193100       0.988563
    13614.703900       0.987815
    13633.265200       0.987047
    13651.877100       0.986259
    13670.540000       0.985453
    13689.253900       0.984627
    13708.019200       0.983783
    13726.836000       0.982921
    13745.704500       0.982042
    13764.624900       0.981145
    13783.597500       0.980231
    13802.622500       0.979301
    13821.700100       0.978355
    13840.830400       0.977393
    13860.013900       0.976416
    13879.250500       0.975425
    13898.540700       0.974418
    13917.884500       0.973398
    13937.282200       0.972364
    13956.734100       0.971317
    13976.240400       0.970257
    13995.801300       0.969185
    14015.417000       0.968101
    14035.087700       0.967005
    14054.813800       0.965899
    14074.595400       0.964781
    14094.432700       0.963654
    14114.326000       0.962516
    14134.275600       0.961369
    14154.281700       0.960213
    14174.344400       0.959048
    14194.464200       0.957875
    14214.641100       0.956695
    14234.875400       0.955507
    14255.167500       0.954312
    14275.517500       0.953110
    14295.925700       0.951903
    14316.392300       0.950690
    14336.917600       0.949471
    14357.501800       0.948248
    14378.145200       0.947020
    14398.848100       0.945788
    14419.610700       0.944553
    14440.433200       0.943314
    14461.316000       0.942073
    14482.259200       0.940829
    14503.263200       0.939584
    14524.328200       0.938336
    14545.454500       0.937088
    14566.642400       0.935839
    14587.892000       0.934589
    14609.203800       0.933339
    14630.577900       0.932090
    14652.014700       0.930842
    14673.514300       0.929595
    14695.077100       0.928349
    14716.703500       0.927105
    14738.393500       0.925864
    14760.147600       0.924626
    14781.966000       0.923390
    14803.849000       0.922158
    14825.796900       0.920930
    14847.809900       0.919706
    14869.888500       0.918486
    14892.032800       0.917272
    14914.243100       0.916062
    14936.519800       0.914859
    14958.863100       0.913661
    14981.273400       0.912469
    15003.750900       0.911284
    15026.296000       0.910106
    15048.909000       0.908935
    15071.590100       0.907772
    15094.339600       0.906617
    15117.158000       0.905470
    15140.045400       0.904331
    15163.002300       0.903201
    15186.028900       0.902080
    15209.125500       0.900969
    15232.292500       0.899867
    15255.530100       0.898775
    15278.838800       0.897694
    15302.218800       0.896623
    15325.670500       0.895562
    15349.194200       0.894513
    15372.790200       0.893475
    15396.458800       0.892448
    15420.200500       0.891433
    15444.015400       0.890430
    15467.904100       0.889439
    15491.866800       0.888460
    15515.903800       0.887494
    15540.015500       0.886541
    15564.202300       0.885601
    15588.464500       0.884674
    15612.802500       0.883760
    15637.216600       0.882859
    15661.707100       0.881972
    15686.274500       0.881100
    15710.919100       0.880240
    15735.641200       0.879396
    15760.441300       0.878565
    15785.319700       0.877748
    15810.276700       0.876946
    15835.312700       0.876159
    15860.428200       0.875386
    15885.623500       0.874628
    15910.899000       0.873885
    15936.255000       0.873157
    15961.691900       0.872443
    15987.210200       0.871745
    16012.810200       0.871061
    16038.492400       0.870393
    16064.257000       0.869740
    16090.104600       0.869102
    16116.035500       0.868479
    16142.050000       0.867872
    16168.148700       0.867279
    16194.332000       0.866702
    16220.600200       0.866139
    16246.953700       0.865592
    16273.393000       0.865060
    16299.918500       0.864542
    16326.530600       0.864040
    16353.229800       0.863552
    16380.016400       0.863079
    16406.890900       0.862621
    16433.853700       0.862177
    16460.905300       0.861748
    16488.046200       0.861332
    16515.276600       0.860931
    16542.597200       0.860544
    16570.008300       0.860171
    16597.510400       0.859812
    16625.103900       0.859466
    16652.789300       0.859133
    16680.567100       0.858813
    16708.437800       0.858507
    16736.401700       0.858213
    16764.459300       0.857931
    16792.611300       0.857662
    16820.857900       0.857404
    16849.199700       0.857159
    16877.637100       0.856925
    16906.170800       0.856701
    16934.801000       0.856489
    16963.528400       0.856287
    16992.353400       0.856096
    17021.276600       0.855915
    17050.298400       0.855743
    17079.419300       0.855580
    17108.639900       0.855426
    17137.960600       0.855281
    17167.382000       0.855144
    17196.904600       0.855014
    17226.528900       0.854892
    17256.255400       0.854777
    17286.084700       0.854668
    17316.017300       0.854566
    17346.053800       0.854469
    17376.194600       0.854378
    17406.440400       0.854291
    17436.791600       0.854208
    17467.248900       0.854129
    17497.812800       0.854054
    17528.483800       0.853981
    17559.262500       0.853911
    17590.149500       0.853842
    17621.145400       0.853775
    17652.250700       0.853708
    17683.466000       0.853641
    17714.791900       0.853574
    17746.228900       0.853506
    17777.777800       0.853436
    17809.439000       0.853365
    17841.213200       0.853290
    17873.101000       0.853212
    17905.103000       0.853130
    17937.219700       0.853043
    17969.451900       0.852951
    18001.800200       0.852853
    18034.265100       0.852749
    18066.847300       0.852637
    18099.547500       0.852517
    18132.366300       0.852389
    18165.304300       0.852251
    18198.362100       0.852103
    18231.540600       0.851945
    18264.840200       0.851775
    18298.261700       0.851592
    18331.805700       0.851397
    18365.472900       0.851188
    18399.264000       0.850965
    18433.179700       0.850726
    18467.220700       0.850472
    18501.387600       0.850201
    18535.681200       0.849912
    18570.102100       0.849605
    18604.651200       0.849278
    18639.329000       0.848932
    18674.136300       0.848565
    18709.073900       0.848176
    18744.142500       0.847765
    18779.342700       0.847331
    18814.675400       0.846873
    18850.141400       0.846390
    18885.741300       0.845881
    18921.475900       0.845345
    18957.346000       0.844782
    18993.352300       0.844190
    19029.495700       0.843569
    19065.776900       0.842919
    19102.196800       0.842237
    19138.756000       0.841523
    19175.455400       0.840776
    19212.295900       0.839996
    19249.278200       0.839181
    19286.403100       0.838331
    19323.671500       0.837444
    19361.084200       0.836520
    19398.642100       0.835558
    19436.346000       0.834557
    19474.196700       0.833516
    19512.195100       0.832433
    19550.342100       0.831309
    19588.638600       0.830142
    19627.085400       0.828932
    19665.683400       0.827676
    19704.433500       0.826375
    19743.336600       0.825028
    19782.393700       0.823633
    19821.605600       0.822190
    19860.973200       0.820698
    19900.497500       0.819155
    19940.179500       0.817562
    19980.020000       0.815916
    20020.020000       0.814217
    20060.180500       0.812464
    20100.502500       0.810657
    20140.986900       0.808794
    20181.634700       0.806874
    20222.446900       0.804897
    20263.424500       0.802861
    20304.568500       0.800766
    20345.880000       0.798610
    20387.359800       0.796394
    20429.009200       0.794115
    20470.829100       0.791774
    20512.820500       0.789368
    20554.984600       0.786898
    20597.322300       0.784363
    20639.834900       0.781761
    20682.523300       0.779092
    20725.388600       0.776355
    20768.432000       0.773548
    20811.654500       0.770673
    20855.057400       0.767726
    20898.641600       0.764708
    20942.408400       0.761618
    20986.358900       0.758455
    21030.494200       0.755218
    21074.815600       0.751907
    21119.324200       0.748520
    21164.021200       0.745057
    21208.907700       0.741518
    21253.985100       0.737900
    21299.254500       0.734205
    21344.717200       0.730431
    21390.374300       0.726577
    21436.227200       0.722643
    21482.277100       0.718628
    21528.525300       0.714531
    21574.973000       0.710352
    21621.621600       0.706090
    21668.472400       0.701744
    21715.526600       0.697315
    21762.785600       0.692801
    21810.250800       0.688202
    21857.923500       0.683517
    21905.805000       0.678746
    21953.896800       0.673889
    22002.200200       0.668944
    22050.716600       0.663912
    22099.447500       0.658791
    22148.394200       0.653582
    22197.558300       0.648285
    22246.941000       0.642898
    22296.544000       0.637421
    22346.368700       0.631855
    22396.416600       0.626199
    22446.689100       0.620452
    22497.187900       0.614614
    22547.914300       0.608686
    22598.870100       0.602666
    22650.056600       0.596556
    22701.475600       0.590353
    22753.128600       0.584059
    22805.017100       0.577674
    22857.142900       0.571197
    22909.507400       0.564628
    22962.112500       0.557967
    23014.959700       0.551215
    23068.050700       0.544371
    23121.387300       0.537435
    23174.971000       0.530408
    23228.803700       0.523290
    23282.887100       0.516080
    23337.222900       0.508780
    23391.812900       0.501389
    23446.658900       0.493907
    23501.762600       0.486336
    23557.126000       0.478674
    23612.750900       0.470924
    23668.639100       0.463085
    23724.792400       0.455157
    23781.212800       0.447141
    23837.902300       0.439038
    23894.862600       0.430848
    23952.095800       0.422571
    24009.603800       0.414210
    24067.388700       0.405763
    24125.452400       0.397233
    24183.796900       0.388619
    24242.424200       0.379922
    24301.336600       0.371145
    24360.535900       0.362286
    24420.024400       0.353347
    24479.804200       0.344330
    24539.877300       0.335236
    24600.246000       0.326064
    24660.912500       0.316818
    24721.878900       0.307497
    24783.147500       0.298103
    24844.720500       0.288637
    24906.600200       0.279101
    24968.789000       0.269496
    25031.289100       0.259823
    25094.102900       0.250085
    25157.232700       0.240282
    25220.681000       0.230415
    25284.450100       0.220488
    25348.542500       0.210501
    25412.960600       0.200457
    25477.707000       0.190356
