21,   21, MVIRI VIS channel from srf_MET2_1984258_1984259_1801-Release_S10EL_10.dat
Number of data points:
730
Wavenumber (cm-1)   Filter response
     8916.629500       0.000000
     8924.587200       0.000000
     8932.559200       0.000002
     8940.545400       0.000011
     8948.545900       0.000032
     8956.560700       0.000068
     8964.589900       0.000125
     8972.633500       0.000206
     8980.691500       0.000316
     8988.764000       0.000458
     8996.851100       0.000635
     9004.952700       0.000852
     9013.068900       0.001111
     9021.199800       0.001416
     9029.345400       0.001770
     9037.505600       0.002175
     9045.680700       0.002635
     9053.870500       0.003152
     9062.075200       0.003728
     9070.294800       0.004366
     9078.529300       0.005068
     9086.778700       0.005837
     9095.043200       0.006673
     9103.322700       0.007579
     9111.617300       0.008557
     9119.927000       0.009608
     9128.251900       0.010734
     9136.592100       0.011937
     9144.947400       0.013217
     9153.318100       0.014575
     9161.704100       0.016013
     9170.105500       0.017532
     9178.522300       0.019133
     9186.954500       0.020816
     9195.402300       0.022583
     9203.865600       0.024433
     9212.344500       0.026368
     9220.839100       0.028388
     9229.349300       0.030493
     9237.875300       0.032683
     9246.417000       0.034960
     9254.974500       0.037323
     9263.547900       0.039771
     9272.137200       0.042306
     9280.742500       0.044927
     9289.363700       0.047633
     9298.000900       0.050426
     9306.654300       0.053305
     9315.323700       0.056268
     9324.009300       0.059317
     9332.711200       0.062450
     9341.429200       0.065667
     9350.163600       0.068968
     9358.914400       0.072352
     9367.681500       0.075818
     9376.465100       0.079367
     9385.265100       0.082996
     9394.081700       0.086706
     9402.914900       0.090495
     9411.764700       0.094363
     9420.631200       0.098309
     9429.514400       0.102332
     9438.414300       0.106432
     9447.331100       0.110606
     9456.264800       0.114855
     9465.215300       0.119177
     9474.182900       0.123570
     9483.167400       0.128035
     9492.169000       0.132570
     9501.187600       0.137174
     9510.223500       0.141845
     9519.276500       0.146583
     9528.346800       0.151386
     9537.434400       0.156253
     9546.539400       0.161183
     9555.661700       0.166174
     9564.801500       0.171226
     9573.958800       0.176337
     9583.133700       0.181505
     9592.326100       0.186730
     9601.536200       0.192010
     9610.764100       0.197343
     9620.009600       0.202729
     9629.273000       0.208166
     9638.554200       0.213652
     9647.853400       0.219187
     9657.170400       0.224768
     9666.505600       0.230395
     9675.858700       0.236066
     9685.230000       0.241779
     9694.619500       0.247534
     9704.027200       0.253328
     9713.453100       0.259161
     9722.897400       0.265032
     9732.360100       0.270937
     9741.841200       0.276876
     9751.340800       0.282848
     9760.859000       0.288852
     9770.395700       0.294886
     9779.951100       0.300947
     9789.525200       0.307037
     9799.118100       0.313152
     9808.729800       0.319290
     9818.360300       0.325452
     9828.009800       0.331635
     9837.678300       0.337838
     9847.365800       0.344061
     9857.072400       0.350300
     9866.798200       0.356555
     9876.543200       0.362825
     9886.307500       0.369108
     9896.091000       0.375404
     9905.894000       0.381709
     9915.716400       0.388025
     9925.558300       0.394347
     9935.419800       0.400677
     9945.300800       0.407013
     9955.201600       0.413351
     9965.122100       0.419694
     9975.062300       0.426037
     9985.022500       0.432381
     9995.002500       0.438724
    10005.002500       0.445065
    10015.022500       0.451403
    10025.062700       0.457736
    10035.122900       0.464063
    10045.203400       0.470384
    10055.304200       0.476697
    10065.425300       0.483000
    10075.566800       0.489293
    10085.728700       0.495575
    10095.911200       0.501844
    10106.114200       0.508100
    10116.337900       0.514341
    10126.582300       0.520567
    10136.847400       0.526775
    10147.133400       0.532967
    10157.440300       0.539139
    10167.768200       0.545291
    10178.117000       0.551423
    10188.487000       0.557534
    10198.878100       0.563622
    10209.290500       0.569686
    10219.724100       0.575726
    10230.179000       0.581740
    10240.655400       0.587729
    10251.153300       0.593690
    10261.672700       0.599624
    10272.213700       0.605529
    10282.776300       0.611404
    10293.360800       0.617249
    10303.967000       0.623063
    10314.595200       0.628845
    10325.245200       0.634595
    10335.917300       0.640311
    10346.611500       0.645993
    10357.327800       0.651641
    10368.066400       0.657253
    10378.827200       0.662829
    10389.610400       0.668369
    10400.416000       0.673871
    10411.244100       0.679335
    10422.094800       0.684760
    10432.968200       0.690147
    10443.864200       0.695494
    10454.783100       0.700801
    10465.724800       0.706066
    10476.689400       0.711291
    10487.677000       0.716474
    10498.687700       0.721615
    10509.721500       0.726713
    10520.778500       0.731767
    10531.858900       0.736778
    10542.962600       0.741746
    10554.089700       0.746668
    10565.240400       0.751546
    10576.414600       0.756378
    10587.612500       0.761165
    10598.834100       0.765907
    10610.079600       0.770602
    10621.348900       0.775250
    10632.642200       0.779851
    10643.959600       0.784405
    10655.301000       0.788912
    10666.666700       0.793371
    10678.056600       0.797782
    10689.470900       0.802145
    10700.909600       0.806460
    10712.372800       0.810725
    10723.860600       0.814942
    10735.373100       0.819110
    10746.910300       0.823229
    10758.472300       0.827299
    10770.059200       0.831319
    10781.671200       0.835289
    10793.308100       0.839210
    10804.970300       0.843081
    10816.657700       0.846902
    10828.370300       0.850673
    10840.108400       0.854394
    10851.871900       0.858064
    10863.661100       0.861685
    10875.475800       0.865256
    10887.316300       0.868776
    10899.182600       0.872245
    10911.074700       0.875665
    10922.992900       0.879034
    10934.937100       0.882353
    10946.907500       0.885622
    10958.904100       0.888841
    10970.927000       0.892009
    10982.976400       0.895128
    10995.052200       0.898196
    11007.154700       0.901214
    11019.283700       0.904183
    11031.439600       0.907102
    11043.622300       0.909971
    11055.832000       0.912790
    11068.068600       0.915560
    11080.332400       0.918281
    11092.623400       0.920953
    11104.941700       0.923575
    11117.287400       0.926149
    11129.660500       0.928673
    11142.061300       0.931150
    11154.489700       0.933577
    11166.945800       0.935957
    11179.429800       0.938288
    11191.941800       0.940572
    11204.481800       0.942808
    11217.049900       0.944996
    11229.646300       0.947137
    11242.270900       0.949231
    11254.924000       0.951279
    11267.605600       0.953279
    11280.315800       0.955234
    11293.054800       0.957142
    11305.822500       0.959004
    11318.619100       0.960821
    11331.444800       0.962592
    11344.299500       0.964318
    11357.183400       0.965999
    11370.096600       0.967635
    11383.039300       0.969228
    11396.011400       0.970776
    11409.013100       0.972280
    11422.044500       0.973741
    11435.105800       0.975158
    11448.196900       0.976533
    11461.318100       0.977864
    11474.469300       0.979154
    11487.650800       0.980401
    11500.862600       0.981607
    11514.104800       0.982771
    11527.377500       0.983894
    11540.680900       0.984976
    11554.015000       0.986017
    11567.380000       0.987019
    11580.775900       0.987980
    11594.202900       0.988902
    11607.661100       0.989784
    11621.150500       0.990627
    11634.671300       0.991432
    11648.223600       0.992198
    11661.807600       0.992926
    11675.423200       0.993617
    11689.070700       0.994270
    11702.750100       0.994886
    11716.461600       0.995465
    11730.205300       0.996008
    11743.981200       0.996514
    11757.789500       0.996985
    11771.630400       0.997420
    11785.503800       0.997821
    11799.410000       0.998186
    11813.349100       0.998517
    11827.321100       0.998814
    11841.326200       0.999077
    11855.364600       0.999306
    11869.436200       0.999502
    11883.541300       0.999665
    11897.680000       0.999796
    11911.852300       0.999895
    11926.058400       0.999961
    11940.298500       0.999996
    11954.572600       1.000000
    11968.880900       0.999973
    11983.223500       0.999915
    11997.600500       0.999827
    12012.012000       0.999708
    12026.458200       0.999560
    12040.939200       0.999383
    12055.455100       0.999176
    12070.006000       0.998941
    12084.592100       0.998677
    12099.213600       0.998385
    12113.870400       0.998066
    12128.562800       0.997718
    12143.290800       0.997344
    12158.054700       0.996942
    12172.854500       0.996513
    12187.690400       0.996059
    12202.562500       0.995578
    12217.471000       0.995071
    12232.415900       0.994539
    12247.397400       0.993981
    12262.415700       0.993398
    12277.470800       0.992791
    12292.563000       0.992159
    12307.692300       0.991503
    12322.858900       0.990824
    12338.062900       0.990120
    12353.304500       0.989393
    12368.583800       0.988643
    12383.900900       0.987870
    12399.256000       0.987075
    12414.649300       0.986257
    12430.080800       0.985417
    12445.550700       0.984555
    12461.059200       0.983672
    12476.606400       0.982767
    12492.192400       0.981841
    12507.817400       0.980894
    12523.481500       0.979927
    12539.185000       0.978939
    12554.927800       0.977931
    12570.710200       0.976903
    12586.532400       0.975855
    12602.394500       0.974787
    12618.296500       0.973701
    12634.238800       0.972595
    12650.221400       0.971470
    12666.244500       0.970326
    12682.308200       0.969164
    12698.412700       0.967984
    12714.558200       0.966785
    12730.744700       0.965569
    12746.972600       0.964335
    12763.241900       0.963083
    12779.552700       0.961814
    12795.905300       0.960528
    12812.299800       0.959224
    12828.736400       0.957904
    12845.215200       0.956568
    12861.736300       0.955214
    12878.300100       0.953845
    12894.906500       0.952459
    12911.555800       0.951058
    12928.248200       0.949640
    12944.983800       0.948207
    12961.762800       0.946758
    12978.585300       0.945294
    12995.451600       0.943815
    13012.361700       0.942320
    13029.316000       0.940811
    13046.314400       0.939287
    13063.357300       0.937748
    13080.444700       0.936195
    13097.576900       0.934627
    13114.754100       0.933046
    13131.976400       0.931449
    13149.243900       0.929839
    13166.556900       0.928216
    13183.915600       0.926578
    13201.320100       0.924926
    13218.770700       0.923262
    13236.267400       0.921583
    13253.810500       0.919892
    13271.400100       0.918187
    13289.036500       0.916469
    13306.719900       0.914738
    13324.450400       0.912994
    13342.228200       0.911237
    13360.053400       0.909468
    13377.926400       0.907686
    13395.847300       0.905892
    13413.816200       0.904085
    13431.833400       0.902266
    13449.899100       0.900435
    13468.013500       0.898591
    13486.176700       0.896736
    13504.388900       0.894868
    13522.650400       0.892989
    13540.961400       0.891098
    13559.322000       0.889195
    13577.732500       0.887280
    13596.193100       0.885354
    13614.703900       0.883417
    13633.265200       0.881468
    13651.877100       0.879507
    13670.540000       0.877536
    13689.253900       0.875553
    13708.019200       0.873559
    13726.836000       0.871554
    13745.704500       0.869538
    13764.624900       0.867511
    13783.597500       0.865473
    13802.622500       0.863424
    13821.700100       0.861365
    13840.830400       0.859295
    13860.013900       0.857214
    13879.250500       0.855123
    13898.540700       0.853021
    13917.884500       0.850909
    13937.282200       0.848786
    13956.734100       0.846654
    13976.240400       0.844510
    13995.801300       0.842357
    14015.417000       0.840194
    14035.087700       0.838020
    14054.813800       0.835837
    14074.595400       0.833643
    14094.432700       0.831440
    14114.326000       0.829227
    14134.275600       0.827004
    14154.281700       0.824771
    14174.344400       0.822529
    14194.464200       0.820277
    14214.641100       0.818015
    14234.875400       0.815744
    14255.167500       0.813464
    14275.517500       0.811174
    14295.925700       0.808875
    14316.392300       0.806566
    14336.917600       0.804249
    14357.501800       0.801922
    14378.145200       0.799586
    14398.848100       0.797241
    14419.610700       0.794887
    14440.433200       0.792525
    14461.316000       0.790153
    14482.259200       0.787773
    14503.263200       0.785384
    14524.328200       0.782986
    14545.454500       0.780580
    14566.642400       0.778165
    14587.892000       0.775742
    14609.203800       0.773310
    14630.577900       0.770871
    14652.014700       0.768423
    14673.514300       0.765966
    14695.077100       0.763502
    14716.703500       0.761030
    14738.393500       0.758549
    14760.147600       0.756061
    14781.966000       0.753565
    14803.849000       0.751062
    14825.796900       0.748550
    14847.809900       0.746032
    14869.888500       0.743505
    14892.032800       0.740972
    14914.243100       0.738430
    14936.519800       0.735882
    14958.863100       0.733327
    14981.273400       0.730764
    15003.750900       0.728195
    15026.296000       0.725619
    15048.909000       0.723036
    15071.590100       0.720446
    15094.339600       0.717850
    15117.158000       0.715247
    15140.045400       0.712637
    15163.002300       0.710022
    15186.028900       0.707400
    15209.125500       0.704772
    15232.292500       0.702138
    15255.530100       0.699498
    15278.838800       0.696853
    15302.218800       0.694202
    15325.670500       0.691544
    15349.194200       0.688882
    15372.790200       0.686214
    15396.458800       0.683541
    15420.200500       0.680863
    15444.015400       0.678180
    15467.904100       0.675492
    15491.866800       0.672799
    15515.903800       0.670101
    15540.015500       0.667399
    15564.202300       0.664692
    15588.464500       0.661981
    15612.802500       0.659266
    15637.216600       0.656546
    15661.707100       0.653823
    15686.274500       0.651096
    15710.919100       0.648365
    15735.641200       0.645631
    15760.441300       0.642893
    15785.319700       0.640151
    15810.276700       0.637407
    15835.312700       0.634660
    15860.428200       0.631909
    15885.623500       0.629156
    15910.899000       0.626400
    15936.255000       0.623642
    15961.691900       0.620881
    15987.210200       0.618119
    16012.810200       0.615353
    16038.492400       0.612587
    16064.257000       0.609818
    16090.104600       0.607047
    16116.035500       0.604275
    16142.050000       0.601502
    16168.148700       0.598727
    16194.332000       0.595952
    16220.600200       0.593175
    16246.953700       0.590398
    16273.393000       0.587620
    16299.918500       0.584841
    16326.530600       0.582062
    16353.229800       0.579283
    16380.016400       0.576503
    16406.890900       0.573724
    16433.853700       0.570945
    16460.905300       0.568167
    16488.046200       0.565389
    16515.276600       0.562611
    16542.597200       0.559835
    16570.008300       0.557059
    16597.510400       0.554285
    16625.103900       0.551511
    16652.789300       0.548740
    16680.567100       0.545970
    16708.437800       0.543201
    16736.401700       0.540434
    16764.459300       0.537670
    16792.611300       0.534907
    16820.857900       0.532147
    16849.199700       0.529389
    16877.637100       0.526634
    16906.170800       0.523882
    16934.801000       0.521132
    16963.528400       0.518386
    16992.353400       0.515642
    17021.276600       0.512902
    17050.298400       0.510165
    17079.419300       0.507432
    17108.639900       0.504703
    17137.960600       0.501977
    17167.382000       0.499256
    17196.904600       0.496538
    17226.528900       0.493825
    17256.255400       0.491116
    17286.084700       0.488412
    17316.017300       0.485712
    17346.053800       0.483017
    17376.194600       0.480327
    17406.440400       0.477642
    17436.791600       0.474962
    17467.248900       0.472287
    17497.812800       0.469618
    17528.483800       0.466954
    17559.262500       0.464295
    17590.149500       0.461642
    17621.145400       0.458996
    17652.250700       0.456355
    17683.466000       0.453719
    17714.791900       0.451090
    17746.228900       0.448468
    17777.777800       0.445851
    17809.439000       0.443241
    17841.213200       0.440637
    17873.101000       0.438040
    17905.103000       0.435449
    17937.219700       0.432865
    17969.451900       0.430288
    18001.800200       0.427718
    18034.265100       0.425155
    18066.847300       0.422598
    18099.547500       0.420049
    18132.366300       0.417507
    18165.304300       0.414971
    18198.362100       0.412444
    18231.540600       0.409923
    18264.840200       0.407410
    18298.261700       0.404904
    18331.805700       0.402405
    18365.472900       0.399914
    18399.264000       0.397430
    18433.179700       0.394954
    18467.220700       0.392485
    18501.387600       0.390024
    18535.681200       0.387570
    18570.102100       0.385124
    18604.651200       0.382686
    18639.329000       0.380255
    18674.136300       0.377831
    18709.073900       0.375415
    18744.142500       0.373007
    18779.342700       0.370606
    18814.675400       0.368213
    18850.141400       0.365827
    18885.741300       0.363448
    18921.475900       0.361077
    18957.346000       0.358713
    18993.352300       0.356357
    19029.495700       0.354008
    19065.776900       0.351666
    19102.196800       0.349332
    19138.756000       0.347004
    19175.455400       0.344684
    19212.295900       0.342371
    19249.278200       0.340064
    19286.403100       0.337764
    19323.671500       0.335472
    19361.084200       0.333185
    19398.642100       0.330906
    19436.346000       0.328633
    19474.196700       0.326366
    19512.195100       0.324105
    19550.342100       0.321851
    19588.638600       0.319603
    19627.085400       0.317361
    19665.683400       0.315124
    19704.433500       0.312893
    19743.336600       0.310668
    19782.393700       0.308448
    19821.605600       0.306234
    19860.973200       0.304024
    19900.497500       0.301820
    19940.179500       0.299620
    19980.020000       0.297425
    20020.020000       0.295235
    20060.180500       0.293048
    20100.502500       0.290866
    20140.986900       0.288688
    20181.634700       0.286514
    20222.446900       0.284343
    20263.424500       0.282176
    20304.568500       0.280012
    20345.880000       0.277851
    20387.359800       0.275693
    20429.009200       0.273538
    20470.829100       0.271385
    20512.820500       0.269234
    20554.984600       0.267085
    20597.322300       0.264938
    20639.834900       0.262792
    20682.523300       0.260648
    20725.388600       0.258505
    20768.432000       0.256363
    20811.654500       0.254222
    20855.057400       0.252081
    20898.641600       0.249940
    20942.408400       0.247799
    20986.358900       0.245658
    21030.494200       0.243516
    21074.815600       0.241374
    21119.324200       0.239230
    21164.021200       0.237085
    21208.907700       0.234939
    21253.985100       0.232791
    21299.254500       0.230641
    21344.717200       0.228489
    21390.374300       0.226334
    21436.227200       0.224177
    21482.277100       0.222016
    21528.525300       0.219853
    21574.973000       0.217685
    21621.621600       0.215514
    21668.472400       0.213339
    21715.526600       0.211160
    21762.785600       0.208976
    21810.250800       0.206788
    21857.923500       0.204594
    21905.805000       0.202395
    21953.896800       0.200191
    22002.200200       0.197981
    22050.716600       0.195765
    22099.447500       0.193543
    22148.394200       0.191315
    22197.558300       0.189080
    22246.941000       0.186838
    22296.544000       0.184589
    22346.368700       0.182332
    22396.416600       0.180069
    22446.689100       0.177797
    22497.187900       0.175518
    22547.914300       0.173230
    22598.870100       0.170935
    22650.056600       0.168631
    22701.475600       0.166318
    22753.128600       0.163997
    22805.017100       0.161667
    22857.142900       0.159327
    22909.507400       0.156979
    22962.112500       0.154621
    23014.959700       0.152254
    23068.050700       0.149877
    23121.387300       0.147490
    23174.971000       0.145094
    23228.803700       0.142688
    23282.887100       0.140272
    23337.222900       0.137846
    23391.812900       0.135411
    23446.658900       0.132965
    23501.762600       0.130509
    23557.126000       0.128043
    23612.750900       0.125567
    23668.639100       0.123082
    23724.792400       0.120586
    23781.212800       0.118080
    23837.902300       0.115565
    23894.862600       0.113040
    23952.095800       0.110505
    24009.603800       0.107961
    24067.388700       0.105407
    24125.452400       0.102845
    24183.796900       0.100273
    24242.424200       0.097693
    24301.336600       0.095103
    24360.535900       0.092506
    24420.024400       0.089901
    24479.804200       0.087288
    24539.877300       0.084668
    24600.246000       0.082040
    24660.912500       0.079406
    24721.878900       0.076765
    24783.147500       0.074119
    24844.720500       0.071467
    24906.600200       0.068810
    24968.789000       0.066148
    25031.289100       0.063483
    25094.102900       0.060814
    25157.232700       0.058143
    25220.681000       0.055469
    25284.450100       0.052793
    25348.542500       0.050117
    25412.960600       0.047440
    25477.707000       0.044764
