91,   91, MVIRI VIS channel from srf_MET5_2002213_2002214_1801-Release_S10EL_10.dat
Number of data points:
806
Wavenumber (cm-1)   Filter response
     8350.730700       0.000000
     8357.710000       0.000000
     8364.701000       0.000000
     8371.703600       0.000002
     8378.718100       0.000004
     8385.744200       0.000009
     8392.782200       0.000017
     8399.832000       0.000027
     8406.893700       0.000042
     8413.967200       0.000061
     8421.052600       0.000084
     8428.150000       0.000113
     8435.259400       0.000148
     8442.380800       0.000188
     8449.514200       0.000236
     8456.659600       0.000290
     8463.817200       0.000351
     8470.986900       0.000421
     8478.168700       0.000498
     8485.362700       0.000584
     8492.569000       0.000679
     8499.787500       0.000783
     8507.018300       0.000897
     8514.261400       0.001020
     8521.516800       0.001154
     8528.784600       0.001298
     8536.064900       0.001453
     8543.357500       0.001619
     8550.662700       0.001796
     8557.980300       0.001984
     8565.310500       0.002184
     8572.653200       0.002397
     8580.008600       0.002621
     8587.376600       0.002858
     8594.757200       0.003108
     8602.150500       0.003371
     8609.556600       0.003646
     8616.975400       0.003935
     8624.407100       0.004238
     8631.851500       0.004554
     8639.308900       0.004884
     8646.779100       0.005228
     8654.262200       0.005587
     8661.758300       0.005959
     8669.267400       0.006347
     8676.789600       0.006749
     8684.324800       0.007166
     8691.873100       0.007598
     8699.434500       0.008045
     8707.009100       0.008507
     8714.596900       0.008985
     8722.198000       0.009479
     8729.812300       0.009988
     8737.439900       0.010513
     8745.080900       0.011054
     8752.735200       0.011612
     8760.403000       0.012185
     8768.084200       0.012775
     8775.778900       0.013382
     8783.487000       0.014005
     8791.208800       0.014645
     8798.944100       0.015302
     8806.693100       0.015976
     8814.455700       0.016667
     8822.232000       0.017375
     8830.022100       0.018100
     8837.825900       0.018844
     8845.643500       0.019604
     8853.475000       0.020383
     8861.320300       0.021179
     8869.179600       0.021993
     8877.052800       0.022825
     8884.940000       0.023675
     8892.841300       0.024543
     8900.756600       0.025430
     8908.686000       0.026336
     8916.629500       0.027259
     8924.587200       0.028202
     8932.559200       0.029163
     8940.545400       0.030143
     8948.545900       0.031142
     8956.560700       0.032160
     8964.589900       0.033197
     8972.633500       0.034254
     8980.691500       0.035330
     8988.764000       0.036425
     8996.851100       0.037540
     9004.952700       0.038675
     9013.068900       0.039829
     9021.199800       0.041003
     9029.345400       0.042197
     9037.505600       0.043412
     9045.680700       0.044646
     9053.870500       0.045901
     9062.075200       0.047176
     9070.294800       0.048472
     9078.529300       0.049788
     9086.778700       0.051125
     9095.043200       0.052482
     9103.322700       0.053861
     9111.617300       0.055260
     9119.927000       0.056680
     9128.251900       0.058122
     9136.592100       0.059585
     9144.947400       0.061069
     9153.318100       0.062574
     9161.704100       0.064101
     9170.105500       0.065649
     9178.522300       0.067220
     9186.954500       0.068811
     9195.402300       0.070425
     9203.865600       0.072061
     9212.344500       0.073719
     9220.839100       0.075398
     9229.349300       0.077100
     9237.875300       0.078824
     9246.417000       0.080571
     9254.974500       0.082340
     9263.547900       0.084131
     9272.137200       0.085945
     9280.742500       0.087782
     9289.363700       0.089641
     9298.000900       0.091523
     9306.654300       0.093428
     9315.323700       0.095355
     9324.009300       0.097306
     9332.711200       0.099280
     9341.429200       0.101276
     9350.163600       0.103296
     9358.914400       0.105339
     9367.681500       0.107406
     9376.465100       0.109495
     9385.265100       0.111608
     9394.081700       0.113745
     9402.914900       0.115904
     9411.764700       0.118088
     9420.631200       0.120295
     9429.514400       0.122525
     9438.414300       0.124779
     9447.331100       0.127056
     9456.264800       0.129358
     9465.215300       0.131683
     9474.182900       0.134031
     9483.167400       0.136404
     9492.169000       0.138800
     9501.187600       0.141220
     9510.223500       0.143664
     9519.276500       0.146131
     9528.346800       0.148623
     9537.434400       0.151138
     9546.539400       0.153676
     9555.661700       0.156239
     9564.801500       0.158826
     9573.958800       0.161436
     9583.133700       0.164070
     9592.326100       0.166728
     9601.536200       0.169409
     9610.764100       0.172115
     9620.009600       0.174844
     9629.273000       0.177596
     9638.554200       0.180372
     9647.853400       0.183172
     9657.170400       0.185996
     9666.505600       0.188843
     9675.858700       0.191713
     9685.230000       0.194607
     9694.619500       0.197524
     9704.027200       0.200464
     9713.453100       0.203428
     9722.897400       0.206415
     9732.360100       0.209424
     9741.841200       0.212457
     9751.340800       0.215513
     9760.859000       0.218592
     9770.395700       0.221693
     9779.951100       0.224817
     9789.525200       0.227964
     9799.118100       0.231133
     9808.729800       0.234324
     9818.360300       0.237538
     9828.009800       0.240774
     9837.678300       0.244032
     9847.365800       0.247312
     9857.072400       0.250613
     9866.798200       0.253937
     9876.543200       0.257282
     9886.307500       0.260648
     9896.091000       0.264036
     9905.894000       0.267444
     9915.716400       0.270874
     9925.558300       0.274324
     9935.419800       0.277795
     9945.300800       0.281287
     9955.201600       0.284798
     9965.122100       0.288330
     9975.062300       0.291882
     9985.022500       0.295454
     9995.002500       0.299045
    10005.002500       0.302656
    10015.022500       0.306286
    10025.062700       0.309935
    10035.122900       0.313602
    10045.203400       0.317289
    10055.304200       0.320994
    10065.425300       0.324717
    10075.566800       0.328458
    10085.728700       0.332216
    10095.911200       0.335993
    10106.114200       0.339786
    10116.337900       0.343597
    10126.582300       0.347424
    10136.847400       0.351268
    10147.133400       0.355129
    10157.440300       0.359005
    10167.768200       0.362898
    10178.117000       0.366806
    10188.487000       0.370729
    10198.878100       0.374667
    10209.290500       0.378620
    10219.724100       0.382588
    10230.179000       0.386569
    10240.655400       0.390565
    10251.153300       0.394574
    10261.672700       0.398597
    10272.213700       0.402633
    10282.776300       0.406681
    10293.360800       0.410743
    10303.967000       0.414816
    10314.595200       0.418901
    10325.245200       0.422997
    10335.917300       0.427105
    10346.611500       0.431224
    10357.327800       0.435354
    10368.066400       0.439493
    10378.827200       0.443643
    10389.610400       0.447802
    10400.416000       0.451971
    10411.244100       0.456148
    10422.094800       0.460334
    10432.968200       0.464529
    10443.864200       0.468731
    10454.783100       0.472941
    10465.724800       0.477158
    10476.689400       0.481382
    10487.677000       0.485613
    10498.687700       0.489849
    10509.721500       0.494092
    10520.778500       0.498340
    10531.858900       0.502592
    10542.962600       0.506850
    10554.089700       0.511112
    10565.240400       0.515378
    10576.414600       0.519648
    10587.612500       0.523920
    10598.834100       0.528196
    10610.079600       0.532474
    10621.348900       0.536754
    10632.642200       0.541036
    10643.959600       0.545319
    10655.301000       0.549603
    10666.666700       0.553887
    10678.056600       0.558171
    10689.470900       0.562456
    10700.909600       0.566739
    10712.372800       0.571022
    10723.860600       0.575303
    10735.373100       0.579582
    10746.910300       0.583859
    10758.472300       0.588133
    10770.059200       0.592404
    10781.671200       0.596671
    10793.308100       0.600935
    10804.970300       0.605195
    10816.657700       0.609449
    10828.370300       0.613699
    10840.108400       0.617943
    10851.871900       0.622181
    10863.661100       0.626413
    10875.475800       0.630639
    10887.316300       0.634857
    10899.182600       0.639067
    10911.074700       0.643270
    10922.992900       0.647464
    10934.937100       0.651649
    10946.907500       0.655826
    10958.904100       0.659992
    10970.927000       0.664149
    10982.976400       0.668296
    10995.052200       0.672431
    11007.154700       0.676555
    11019.283700       0.680668
    11031.439600       0.684769
    11043.622300       0.688857
    11055.832000       0.692933
    11068.068600       0.696995
    11080.332400       0.701044
    11092.623400       0.705079
    11104.941700       0.709099
    11117.287400       0.713104
    11129.660500       0.717094
    11142.061300       0.721069
    11154.489700       0.725028
    11166.945800       0.728970
    11179.429800       0.732896
    11191.941800       0.736804
    11204.481800       0.740695
    11217.049900       0.744568
    11229.646300       0.748423
    11242.270900       0.752259
    11254.924000       0.756076
    11267.605600       0.759874
    11280.315800       0.763651
    11293.054800       0.767409
    11305.822500       0.771146
    11318.619100       0.774862
    11331.444800       0.778557
    11344.299500       0.782230
    11357.183400       0.785882
    11370.096600       0.789511
    11383.039300       0.793117
    11396.011400       0.796701
    11409.013100       0.800261
    11422.044500       0.803797
    11435.105800       0.807310
    11448.196900       0.810797
    11461.318100       0.814261
    11474.469300       0.817699
    11487.650800       0.821112
    11500.862600       0.824499
    11514.104800       0.827860
    11527.377500       0.831195
    11540.680900       0.834504
    11554.015000       0.837785
    11567.380000       0.841039
    11580.775900       0.844266
    11594.202900       0.847465
    11607.661100       0.850636
    11621.150500       0.853779
    11634.671300       0.856892
    11648.223600       0.859977
    11661.807600       0.863033
    11675.423200       0.866060
    11689.070700       0.869056
    11702.750100       0.872023
    11716.461600       0.874959
    11730.205300       0.877865
    11743.981200       0.880741
    11757.789500       0.883585
    11771.630400       0.886398
    11785.503800       0.889180
    11799.410000       0.891930
    11813.349100       0.894648
    11827.321100       0.897335
    11841.326200       0.899988
    11855.364600       0.902610
    11869.436200       0.905199
    11883.541300       0.907755
    11897.680000       0.910278
    11911.852300       0.912767
    11926.058400       0.915223
    11940.298500       0.917646
    11954.572600       0.920035
    11968.880900       0.922390
    11983.223500       0.924711
    11997.600500       0.926998
    12012.012000       0.929250
    12026.458200       0.931468
    12040.939200       0.933652
    12055.455100       0.935800
    12070.006000       0.937914
    12084.592100       0.939993
    12099.213600       0.942036
    12113.870400       0.944045
    12128.562800       0.946018
    12143.290800       0.947956
    12158.054700       0.949859
    12172.854500       0.951725
    12187.690400       0.953557
    12202.562500       0.955352
    12217.471000       0.957112
    12232.415900       0.958836
    12247.397400       0.960524
    12262.415700       0.962177
    12277.470800       0.963793
    12292.563000       0.965374
    12307.692300       0.966918
    12322.858900       0.968427
    12338.062900       0.969900
    12353.304500       0.971336
    12368.583800       0.972737
    12383.900900       0.974101
    12399.256000       0.975430
    12414.649300       0.976723
    12430.080800       0.977979
    12445.550700       0.979200
    12461.059200       0.980385
    12476.606400       0.981534
    12492.192400       0.982647
    12507.817400       0.983725
    12523.481500       0.984767
    12539.185000       0.985773
    12554.927800       0.986744
    12570.710200       0.987680
    12586.532400       0.988580
    12602.394500       0.989444
    12618.296500       0.990274
    12634.238800       0.991069
    12650.221400       0.991828
    12666.244500       0.992553
    12682.308200       0.993243
    12698.412700       0.993899
    12714.558200       0.994520
    12730.744700       0.995107
    12746.972600       0.995660
    12763.241900       0.996178
    12779.552700       0.996663
    12795.905300       0.997114
    12812.299800       0.997532
    12828.736400       0.997916
    12845.215200       0.998267
    12861.736300       0.998586
    12878.300100       0.998871
    12894.906500       0.999124
    12911.555800       0.999344
    12928.248200       0.999533
    12944.983800       0.999689
    12961.762800       0.999814
    12978.585300       0.999907
    12995.451600       0.999969
    13012.361700       1.000000
    13029.316000       1.000000
    13046.314400       0.999970
    13063.357300       0.999909
    13080.444700       0.999818
    13097.576900       0.999697
    13114.754100       0.999547
    13131.976400       0.999368
    13149.243900       0.999160
    13166.556900       0.998923
    13183.915600       0.998658
    13201.320100       0.998364
    13218.770700       0.998043
    13236.267400       0.997694
    13253.810500       0.997318
    13271.400100       0.996916
    13289.036500       0.996486
    13306.719900       0.996031
    13324.450400       0.995549
    13342.228200       0.995042
    13360.053400       0.994509
    13377.926400       0.993952
    13395.847300       0.993370
    13413.816200       0.992763
    13431.833400       0.992133
    13449.899100       0.991479
    13468.013500       0.990802
    13486.176700       0.990102
    13504.388900       0.989380
    13522.650400       0.988635
    13540.961400       0.987869
    13559.322000       0.987081
    13577.732500       0.986272
    13596.193100       0.985443
    13614.703900       0.984593
    13633.265200       0.983723
    13651.877100       0.982834
    13670.540000       0.981926
    13689.253900       0.980999
    13708.019200       0.980053
    13726.836000       0.979090
    13745.704500       0.978109
    13764.624900       0.977111
    13783.597500       0.976096
    13802.622500       0.975064
    13821.700100       0.974017
    13840.830400       0.972954
    13860.013900       0.971876
    13879.250500       0.970784
    13898.540700       0.969677
    13917.884500       0.968556
    13937.282200       0.967421
    13956.734100       0.966274
    13976.240400       0.965114
    13995.801300       0.963941
    14015.417000       0.962757
    14035.087700       0.961561
    14054.813800       0.960355
    14074.595400       0.959137
    14094.432700       0.957910
    14114.326000       0.956673
    14134.275600       0.955426
    14154.281700       0.954171
    14174.344400       0.952907
    14194.464200       0.951635
    14214.641100       0.950355
    14234.875400       0.949068
    14255.167500       0.947774
    14275.517500       0.946474
    14295.925700       0.945168
    14316.392300       0.943856
    14336.917600       0.942540
    14357.501800       0.941218
    14378.145200       0.939892
    14398.848100       0.938563
    14419.610700       0.937229
    14440.433200       0.935893
    14461.316000       0.934554
    14482.259200       0.933213
    14503.263200       0.931869
    14524.328200       0.930525
    14545.454500       0.929179
    14566.642400       0.927833
    14587.892000       0.926486
    14609.203800       0.925140
    14630.577900       0.923794
    14652.014700       0.922448
    14673.514300       0.921105
    14695.077100       0.919762
    14716.703500       0.918422
    14738.393500       0.917084
    14760.147600       0.915749
    14781.966000       0.914418
    14803.849000       0.913089
    14825.796900       0.911765
    14847.809900       0.910444
    14869.888500       0.909129
    14892.032800       0.907818
    14914.243100       0.906513
    14936.519800       0.905213
    14958.863100       0.903919
    14981.273400       0.902631
    15003.750900       0.901350
    15026.296000       0.900076
    15048.909000       0.898810
    15071.590100       0.897550
    15094.339600       0.896299
    15117.158000       0.895056
    15140.045400       0.893821
    15163.002300       0.892595
    15186.028900       0.891379
    15209.125500       0.890171
    15232.292500       0.888973
    15255.530100       0.887785
    15278.838800       0.886607
    15302.218800       0.885440
    15325.670500       0.884283
    15349.194200       0.883137
    15372.790200       0.882003
    15396.458800       0.880879
    15420.200500       0.879767
    15444.015400       0.878667
    15467.904100       0.877579
    15491.866800       0.876504
    15515.903800       0.875441
    15540.015500       0.874390
    15564.202300       0.873352
    15588.464500       0.872327
    15612.802500       0.871315
    15637.216600       0.870317
    15661.707100       0.869332
    15686.274500       0.868361
    15710.919100       0.867403
    15735.641200       0.866460
    15760.441300       0.865530
    15785.319700       0.864614
    15810.276700       0.863713
    15835.312700       0.862826
    15860.428200       0.861954
    15885.623500       0.861096
    15910.899000       0.860252
    15936.255000       0.859423
    15961.691900       0.858609
    15987.210200       0.857810
    16012.810200       0.857025
    16038.492400       0.856255
    16064.257000       0.855501
    16090.104600       0.854760
    16116.035500       0.854035
    16142.050000       0.853325
    16168.148700       0.852629
    16194.332000       0.851949
    16220.600200       0.851283
    16246.953700       0.850631
    16273.393000       0.849995
    16299.918500       0.849373
    16326.530600       0.848766
    16353.229800       0.848173
    16380.016400       0.847594
    16406.890900       0.847030
    16433.853700       0.846480
    16460.905300       0.845944
    16488.046200       0.845422
    16515.276600       0.844913
    16542.597200       0.844419
    16570.008300       0.843937
    16597.510400       0.843469
    16625.103900       0.843015
    16652.789300       0.842573
    16680.567100       0.842144
    16708.437800       0.841727
    16736.401700       0.841323
    16764.459300       0.840930
    16792.611300       0.840550
    16820.857900       0.840181
    16849.199700       0.839824
    16877.637100       0.839477
    16906.170800       0.839142
    16934.801000       0.838816
    16963.528400       0.838501
    16992.353400       0.838196
    17021.276600       0.837901
    17050.298400       0.837614
    17079.419300       0.837337
    17108.639900       0.837068
    17137.960600       0.836807
    17167.382000       0.836554
    17196.904600       0.836309
    17226.528900       0.836070
    17256.255400       0.835838
    17286.084700       0.835612
    17316.017300       0.835392
    17346.053800       0.835178
    17376.194600       0.834968
    17406.440400       0.834763
    17436.791600       0.834561
    17467.248900       0.834364
    17497.812800       0.834169
    17528.483800       0.833977
    17559.262500       0.833786
    17590.149500       0.833598
    17621.145400       0.833410
    17652.250700       0.833223
    17683.466000       0.833036
    17714.791900       0.832848
    17746.228900       0.832659
    17777.777800       0.832468
    17809.439000       0.832275
    17841.213200       0.832079
    17873.101000       0.831879
    17905.103000       0.831675
    17937.219700       0.831467
    17969.451900       0.831253
    18001.800200       0.831033
    18034.265100       0.830807
    18066.847300       0.830573
    18099.547500       0.830331
    18132.366300       0.830081
    18165.304300       0.829822
    18198.362100       0.829552
    18231.540600       0.829272
    18264.840200       0.828980
    18298.261700       0.828677
    18331.805700       0.828361
    18365.472900       0.828031
    18399.264000       0.827687
    18433.179700       0.827328
    18467.220700       0.826953
    18501.387600       0.826562
    18535.681200       0.826154
    18570.102100       0.825727
    18604.651200       0.825282
    18639.329000       0.824818
    18674.136300       0.824333
    18709.073900       0.823827
    18744.142500       0.823299
    18779.342700       0.822749
    18814.675400       0.822175
    18850.141400       0.821577
    18885.741300       0.820953
    18921.475900       0.820304
    18957.346000       0.819628
    18993.352300       0.818925
    19029.495700       0.818193
    19065.776900       0.817431
    19102.196800       0.816640
    19138.756000       0.815818
    19175.455400       0.814964
    19212.295900       0.814077
    19249.278200       0.813157
    19286.403100       0.812203
    19323.671500       0.811213
    19361.084200       0.810187
    19398.642100       0.809124
    19436.346000       0.808024
    19474.196700       0.806885
    19512.195100       0.805706
    19550.342100       0.804487
    19588.638600       0.803226
    19627.085400       0.801924
    19665.683400       0.800578
    19704.433500       0.799189
    19743.336600       0.797754
    19782.393700       0.796274
    19821.605600       0.794748
    19860.973200       0.793174
    19900.497500       0.791552
    19940.179500       0.789881
    19980.020000       0.788159
    20020.020000       0.786387
    20060.180500       0.784563
    20100.502500       0.782687
    20140.986900       0.780757
    20181.634700       0.778773
    20222.446900       0.776734
    20263.424500       0.774638
    20304.568500       0.772486
    20345.880000       0.770276
    20387.359800       0.768008
    20429.009200       0.765681
    20470.829100       0.763293
    20512.820500       0.760844
    20554.984600       0.758334
    20597.322300       0.755761
    20639.834900       0.753124
    20682.523300       0.750424
    20725.388600       0.747659
    20768.432000       0.744827
    20811.654500       0.741930
    20855.057400       0.738965
    20898.641600       0.735932
    20942.408400       0.732831
    20986.358900       0.729660
    21030.494200       0.726419
    21074.815600       0.723108
    21119.324200       0.719724
    21164.021200       0.716269
    21208.907700       0.712741
    21253.985100       0.709139
    21299.254500       0.705463
    21344.717200       0.701712
    21390.374300       0.697886
    21436.227200       0.693983
    21482.277100       0.690004
    21528.525300       0.685948
    21574.973000       0.681814
    21621.621600       0.677602
    21668.472400       0.673311
    21715.526600       0.668941
    21762.785600       0.664491
    21810.250800       0.659961
    21857.923500       0.655350
    21905.805000       0.650657
    21953.896800       0.645883
    22002.200200       0.641027
    22050.716600       0.636089
    22099.447500       0.631068
    22148.394200       0.625964
    22197.558300       0.620776
    22246.941000       0.615505
    22296.544000       0.610149
    22346.368700       0.604710
    22396.416600       0.599185
    22446.689100       0.593576
    22497.187900       0.587883
    22547.914300       0.582104
    22598.870100       0.576240
    22650.056600       0.570291
    22701.475600       0.564256
    22753.128600       0.558136
    22805.017100       0.551930
    22857.142900       0.545639
    22909.507400       0.539262
    22962.112500       0.532800
    23014.959700       0.526253
    23068.050700       0.519620
    23121.387300       0.512903
    23174.971000       0.506100
    23228.803700       0.499213
    23282.887100       0.492241
    23337.222900       0.485185
    23391.812900       0.478045
    23446.658900       0.470821
    23501.762600       0.463514
    23557.126000       0.456124
    23612.750900       0.448652
    23668.639100       0.441098
    23724.792400       0.433462
    23781.212800       0.425746
    23837.902300       0.417949
    23894.862600       0.410073
    23952.095800       0.402117
    24009.603800       0.394083
    24067.388700       0.385971
    24125.452400       0.377782
    24183.796900       0.369517
    24242.424200       0.361177
    24301.336600       0.352762
    24360.535900       0.344274
    24420.024400       0.335713
    24479.804200       0.327081
    24539.877300       0.318379
    24600.246000       0.309607
    24660.912500       0.300766
    24721.878900       0.291859
    24783.147500       0.282886
    24844.720500       0.273848
    24906.600200       0.264747
    24968.789000       0.255585
    25031.289100       0.246362
    25094.102900       0.237079
    25157.232700       0.227740
    25220.681000       0.218344
    25284.450100       0.208894
    25348.542500       0.199392
    25412.960600       0.189838
    25477.707000       0.180236
