88,   88, MVIRI VIS channel from srf_MET7_2008213_2008214_1801-Release_S10EE_10.dat
Number of data points:
793
Wavenumber (cm-1)   Filter response
     8442.380800       0.000000
     8449.514200       0.000000
     8456.659600       0.000004
     8463.817200       0.000056
     8470.986900       0.000165
     8478.168700       0.000330
     8485.362700       0.000549
     8492.569000       0.000821
     8499.787500       0.001144
     8507.018300       0.001516
     8514.261400       0.001937
     8521.516800       0.002404
     8528.784600       0.002917
     8536.064900       0.003474
     8543.357500       0.004074
     8550.662700       0.004716
     8557.980300       0.005399
     8565.310500       0.006121
     8572.653200       0.006881
     8580.008600       0.007679
     8587.376600       0.008514
     8594.757200       0.009384
     8602.150500       0.010289
     8609.556600       0.011227
     8616.975400       0.012198
     8624.407100       0.013202
     8631.851500       0.014237
     8639.308900       0.015303
     8646.779100       0.016399
     8654.262200       0.017524
     8661.758300       0.018677
     8669.267400       0.019860
     8676.789600       0.021069
     8684.324800       0.022306
     8691.873100       0.023569
     8699.434500       0.024858
     8707.009100       0.026173
     8714.596900       0.027513
     8722.198000       0.028878
     8729.812300       0.030267
     8737.439900       0.031680
     8745.080900       0.033117
     8752.735200       0.034577
     8760.403000       0.036060
     8768.084200       0.037566
     8775.778900       0.039095
     8783.487000       0.040646
     8791.208800       0.042218
     8798.944100       0.043813
     8806.693100       0.045430
     8814.455700       0.047068
     8822.232000       0.048728
     8830.022100       0.050409
     8837.825900       0.052110
     8845.643500       0.053833
     8853.475000       0.055577
     8861.320300       0.057342
     8869.179600       0.059127
     8877.052800       0.060934
     8884.940000       0.062761
     8892.841300       0.064608
     8900.756600       0.066477
     8908.686000       0.068365
     8916.629500       0.070275
     8924.587200       0.072205
     8932.559200       0.074155
     8940.545400       0.076127
     8948.545900       0.078119
     8956.560700       0.080131
     8964.589900       0.082164
     8972.633500       0.084218
     8980.691500       0.086293
     8988.764000       0.088389
     8996.851100       0.090506
     9004.952700       0.092643
     9013.068900       0.094802
     9021.199800       0.096982
     9029.345400       0.099183
     9037.505600       0.101405
     9045.680700       0.103649
     9053.870500       0.105914
     9062.075200       0.108201
     9070.294800       0.110510
     9078.529300       0.112839
     9086.778700       0.115191
     9095.043200       0.117565
     9103.322700       0.119961
     9111.617300       0.122379
     9119.927000       0.124819
     9128.251900       0.127281
     9136.592100       0.129766
     9144.947400       0.132273
     9153.318100       0.134802
     9161.704100       0.137354
     9170.105500       0.139929
     9178.522300       0.142527
     9186.954500       0.145147
     9195.402300       0.147791
     9203.865600       0.150457
     9212.344500       0.153147
     9220.839100       0.155859
     9229.349300       0.158595
     9237.875300       0.161354
     9246.417000       0.164136
     9254.974500       0.166942
     9263.547900       0.169772
     9272.137200       0.172624
     9280.742500       0.175500
     9289.363700       0.178400
     9298.000900       0.181324
     9306.654300       0.184271
     9315.323700       0.187241
     9324.009300       0.190236
     9332.711200       0.193254
     9341.429200       0.196295
     9350.163600       0.199361
     9358.914400       0.202450
     9367.681500       0.205563
     9376.465100       0.208700
     9385.265100       0.211860
     9394.081700       0.215044
     9402.914900       0.218251
     9411.764700       0.221482
     9420.631200       0.224737
     9429.514400       0.228015
     9438.414300       0.231316
     9447.331100       0.234641
     9456.264800       0.237990
     9465.215300       0.241361
     9474.182900       0.244756
     9483.167400       0.248174
     9492.169000       0.251614
     9501.187600       0.255078
     9510.223500       0.258565
     9519.276500       0.262074
     9528.346800       0.265606
     9537.434400       0.269161
     9546.539400       0.272737
     9555.661700       0.276337
     9564.801500       0.279957
     9573.958800       0.283601
     9583.133700       0.287265
     9592.326100       0.290952
     9601.536200       0.294660
     9610.764100       0.298388
     9620.009600       0.302139
     9629.273000       0.305910
     9638.554200       0.309702
     9647.853400       0.313514
     9657.170400       0.317347
     9666.505600       0.321200
     9675.858700       0.325073
     9685.230000       0.328965
     9694.619500       0.332877
     9704.027200       0.336808
     9713.453100       0.340758
     9722.897400       0.344727
     9732.360100       0.348714
     9741.841200       0.352720
     9751.340800       0.356743
     9760.859000       0.360784
     9770.395700       0.364843
     9779.951100       0.368918
     9789.525200       0.373011
     9799.118100       0.377120
     9808.729800       0.381245
     9818.360300       0.385386
     9828.009800       0.389542
     9837.678300       0.393715
     9847.365800       0.397902
     9857.072400       0.402103
     9866.798200       0.406319
     9876.543200       0.410549
     9886.307500       0.414793
     9896.091000       0.419050
     9905.894000       0.423319
     9915.716400       0.427602
     9925.558300       0.431896
     9935.419800       0.436203
     9945.300800       0.440521
     9955.201600       0.444849
     9965.122100       0.449189
     9975.062300       0.453539
     9985.022500       0.457899
     9995.002500       0.462269
    10005.002500       0.466648
    10015.022500       0.471035
    10025.062700       0.475431
    10035.122900       0.479835
    10045.203400       0.484246
    10055.304200       0.488665
    10065.425300       0.493090
    10075.566800       0.497521
    10085.728700       0.501958
    10095.911200       0.506401
    10106.114200       0.510849
    10116.337900       0.515301
    10126.582300       0.519757
    10136.847400       0.524217
    10147.133400       0.528681
    10157.440300       0.533147
    10167.768200       0.537615
    10178.117000       0.542085
    10188.487000       0.546557
    10198.878100       0.551030
    10209.290500       0.555503
    10219.724100       0.559977
    10230.179000       0.564450
    10240.655400       0.568922
    10251.153300       0.573393
    10261.672700       0.577862
    10272.213700       0.582329
    10282.776300       0.586793
    10293.360800       0.591254
    10303.967000       0.595712
    10314.595200       0.600165
    10325.245200       0.604613
    10335.917300       0.609057
    10346.611500       0.613495
    10357.327800       0.617928
    10368.066400       0.622353
    10378.827200       0.626772
    10389.610400       0.631184
    10400.416000       0.635587
    10411.244100       0.639982
    10422.094800       0.644369
    10432.968200       0.648746
    10443.864200       0.653113
    10454.783100       0.657470
    10465.724800       0.661817
    10476.689400       0.666152
    10487.677000       0.670476
    10498.687700       0.674787
    10509.721500       0.679086
    10520.778500       0.683372
    10531.858900       0.687644
    10542.962600       0.691903
    10554.089700       0.696147
    10565.240400       0.700376
    10576.414600       0.704590
    10587.612500       0.708788
    10598.834100       0.712970
    10610.079600       0.717135
    10621.348900       0.721283
    10632.642200       0.725414
    10643.959600       0.729526
    10655.301000       0.733620
    10666.666700       0.737695
    10678.056600       0.741751
    10689.470900       0.745786
    10700.909600       0.749802
    10712.372800       0.753797
    10723.860600       0.757771
    10735.373100       0.761724
    10746.910300       0.765654
    10758.472300       0.769563
    10770.059200       0.773448
    10781.671200       0.777310
    10793.308100       0.781149
    10804.970300       0.784964
    10816.657700       0.788755
    10828.370300       0.792520
    10840.108400       0.796261
    10851.871900       0.799976
    10863.661100       0.803665
    10875.475800       0.807328
    10887.316300       0.810964
    10899.182600       0.814574
    10911.074700       0.818156
    10922.992900       0.821710
    10934.937100       0.825236
    10946.907500       0.828733
    10958.904100       0.832202
    10970.927000       0.835642
    10982.976400       0.839052
    10995.052200       0.842432
    11007.154700       0.845782
    11019.283700       0.849102
    11031.439600       0.852391
    11043.622300       0.855648
    11055.832000       0.858875
    11068.068600       0.862069
    11080.332400       0.865232
    11092.623400       0.868363
    11104.941700       0.871461
    11117.287400       0.874525
    11129.660500       0.877557
    11142.061300       0.880556
    11154.489700       0.883521
    11166.945800       0.886452
    11179.429800       0.889348
    11191.941800       0.892211
    11204.481800       0.895038
    11217.049900       0.897831
    11229.646300       0.900589
    11242.270900       0.903311
    11254.924000       0.905998
    11267.605600       0.908649
    11280.315800       0.911264
    11293.054800       0.913843
    11305.822500       0.916385
    11318.619100       0.918892
    11331.444800       0.921361
    11344.299500       0.923793
    11357.183400       0.926189
    11370.096600       0.928547
    11383.039300       0.930868
    11396.011400       0.933151
    11409.013100       0.935397
    11422.044500       0.937605
    11435.105800       0.939775
    11448.196900       0.941907
    11461.318100       0.944001
    11474.469300       0.946056
    11487.650800       0.948074
    11500.862600       0.950053
    11514.104800       0.951993
    11527.377500       0.953895
    11540.680900       0.955758
    11554.015000       0.957583
    11567.380000       0.959368
    11580.775900       0.961115
    11594.202900       0.962823
    11607.661100       0.964492
    11621.150500       0.966122
    11634.671300       0.967713
    11648.223600       0.969265
    11661.807600       0.970778
    11675.423200       0.972252
    11689.070700       0.973687
    11702.750100       0.975083
    11716.461600       0.976440
    11730.205300       0.977758
    11743.981200       0.979037
    11757.789500       0.980277
    11771.630400       0.981479
    11785.503800       0.982641
    11799.410000       0.983765
    11813.349100       0.984850
    11827.321100       0.985896
    11841.326200       0.986904
    11855.364600       0.987874
    11869.436200       0.988805
    11883.541300       0.989697
    11897.680000       0.990552
    11911.852300       0.991368
    11926.058400       0.992147
    11940.298500       0.992888
    11954.572600       0.993591
    11968.880900       0.994256
    11983.223500       0.994884
    11997.600500       0.995475
    12012.012000       0.996028
    12026.458200       0.996545
    12040.939200       0.997025
    12055.455100       0.997468
    12070.006000       0.997875
    12084.592100       0.998245
    12099.213600       0.998579
    12113.870400       0.998878
    12128.562800       0.999141
    12143.290800       0.999368
    12158.054700       0.999560
    12172.854500       0.999717
    12187.690400       0.999840
    12202.562500       0.999927
    12217.471000       0.999981
    12232.415900       1.000000
    12247.397400       0.999985
    12262.415700       0.999937
    12277.470800       0.999856
    12292.563000       0.999741
    12307.692300       0.999594
    12322.858900       0.999414
    12338.062900       0.999202
    12353.304500       0.998958
    12368.583800       0.998683
    12383.900900       0.998376
    12399.256000       0.998038
    12414.649300       0.997669
    12430.080800       0.997270
    12445.550700       0.996841
    12461.059200       0.996382
    12476.606400       0.995893
    12492.192400       0.995375
    12507.817400       0.994829
    12523.481500       0.994254
    12539.185000       0.993651
    12554.927800       0.993020
    12570.710200       0.992362
    12586.532400       0.991677
    12602.394500       0.990965
    12618.296500       0.990227
    12634.238800       0.989463
    12650.221400       0.988673
    12666.244500       0.987858
    12682.308200       0.987019
    12698.412700       0.986155
    12714.558200       0.985266
    12730.744700       0.984355
    12746.972600       0.983420
    12763.241900       0.982462
    12779.552700       0.981481
    12795.905300       0.980479
    12812.299800       0.979455
    12828.736400       0.978409
    12845.215200       0.977343
    12861.736300       0.976257
    12878.300100       0.975150
    12894.906500       0.974024
    12911.555800       0.972879
    12928.248200       0.971715
    12944.983800       0.970533
    12961.762800       0.969333
    12978.585300       0.968115
    12995.451600       0.966881
    13012.361700       0.965629
    13029.316000       0.964362
    13046.314400       0.963079
    13063.357300       0.961781
    13080.444700       0.960468
    13097.576900       0.959141
    13114.754100       0.957800
    13131.976400       0.956445
    13149.243900       0.955078
    13166.556900       0.953698
    13183.915600       0.952305
    13201.320100       0.950901
    13218.770700       0.949486
    13236.267400       0.948060
    13253.810500       0.946624
    13271.400100       0.945178
    13289.036500       0.943722
    13306.719900       0.942258
    13324.450400       0.940785
    13342.228200       0.939304
    13360.053400       0.937815
    13377.926400       0.936319
    13395.847300       0.934817
    13413.816200       0.933308
    13431.833400       0.931794
    13449.899100       0.930274
    13468.013500       0.928749
    13486.176700       0.927220
    13504.388900       0.925686
    13522.650400       0.924150
    13540.961400       0.922610
    13559.322000       0.921067
    13577.732500       0.919522
    13596.193100       0.917976
    13614.703900       0.916428
    13633.265200       0.914879
    13651.877100       0.913330
    13670.540000       0.911780
    13689.253900       0.910231
    13708.019200       0.908683
    13726.836000       0.907136
    13745.704500       0.905591
    13764.624900       0.904047
    13783.597500       0.902507
    13802.622500       0.900969
    13821.700100       0.899434
    13840.830400       0.897903
    13860.013900       0.896377
    13879.250500       0.894855
    13898.540700       0.893337
    13917.884500       0.891826
    13937.282200       0.890319
    13956.734100       0.888819
    13976.240400       0.887326
    13995.801300       0.885839
    14015.417000       0.884360
    14035.087700       0.882888
    14054.813800       0.881424
    14074.595400       0.879969
    14094.432700       0.878522
    14114.326000       0.877084
    14134.275600       0.875656
    14154.281700       0.874238
    14174.344400       0.872829
    14194.464200       0.871432
    14214.641100       0.870044
    14234.875400       0.868668
    14255.167500       0.867304
    14275.517500       0.865951
    14295.925700       0.864611
    14316.392300       0.863282
    14336.917600       0.861967
    14357.501800       0.860664
    14378.145200       0.859374
    14398.848100       0.858099
    14419.610700       0.856836
    14440.433200       0.855588
    14461.316000       0.854355
    14482.259200       0.853136
    14503.263200       0.851931
    14524.328200       0.850742
    14545.454500       0.849569
    14566.642400       0.848410
    14587.892000       0.847268
    14609.203800       0.846142
    14630.577900       0.845031
    14652.014700       0.843938
    14673.514300       0.842861
    14695.077100       0.841800
    14716.703500       0.840757
    14738.393500       0.839731
    14760.147600       0.838723
    14781.966000       0.837731
    14803.849000       0.836758
    14825.796900       0.835802
    14847.809900       0.834865
    14869.888500       0.833945
    14892.032800       0.833044
    14914.243100       0.832161
    14936.519800       0.831296
    14958.863100       0.830450
    14981.273400       0.829623
    15003.750900       0.828814
    15026.296000       0.828024
    15048.909000       0.827253
    15071.590100       0.826501
    15094.339600       0.825768
    15117.158000       0.825054
    15140.045400       0.824359
    15163.002300       0.823684
    15186.028900       0.823027
    15209.125500       0.822389
    15232.292500       0.821771
    15255.530100       0.821171
    15278.838800       0.820591
    15302.218800       0.820030
    15325.670500       0.819488
    15349.194200       0.818964
    15372.790200       0.818460
    15396.458800       0.817975
    15420.200500       0.817508
    15444.015400       0.817060
    15467.904100       0.816631
    15491.866800       0.816221
    15515.903800       0.815829
    15540.015500       0.815455
    15564.202300       0.815099
    15588.464500       0.814761
    15612.802500       0.814442
    15637.216600       0.814140
    15661.707100       0.813856
    15686.274500       0.813589
    15710.919100       0.813339
    15735.641200       0.813107
    15760.441300       0.812891
    15785.319700       0.812692
    15810.276700       0.812510
    15835.312700       0.812344
    15860.428200       0.812194
    15885.623500       0.812059
    15910.899000       0.811940
    15936.255000       0.811836
    15961.691900       0.811748
    15987.210200       0.811674
    16012.810200       0.811614
    16038.492400       0.811568
    16064.257000       0.811536
    16090.104600       0.811518
    16116.035500       0.811513
    16142.050000       0.811520
    16168.148700       0.811540
    16194.332000       0.811572
    16220.600200       0.811616
    16246.953700       0.811671
    16273.393000       0.811737
    16299.918500       0.811814
    16326.530600       0.811901
    16353.229800       0.811997
    16380.016400       0.812103
    16406.890900       0.812218
    16433.853700       0.812342
    16460.905300       0.812473
    16488.046200       0.812612
    16515.276600       0.812758
    16542.597200       0.812911
    16570.008300       0.813070
    16597.510400       0.813235
    16625.103900       0.813405
    16652.789300       0.813579
    16680.567100       0.813758
    16708.437800       0.813940
    16736.401700       0.814126
    16764.459300       0.814314
    16792.611300       0.814504
    16820.857900       0.814695
    16849.199700       0.814888
    16877.637100       0.815081
    16906.170800       0.815273
    16934.801000       0.815465
    16963.528400       0.815655
    16992.353400       0.815844
    17021.276600       0.816030
    17050.298400       0.816212
    17079.419300       0.816391
    17108.639900       0.816565
    17137.960600       0.816734
    17167.382000       0.816898
    17196.904600       0.817055
    17226.528900       0.817205
    17256.255400       0.817347
    17286.084700       0.817481
    17316.017300       0.817606
    17346.053800       0.817721
    17376.194600       0.817826
    17406.440400       0.817920
    17436.791600       0.818002
    17467.248900       0.818072
    17497.812800       0.818128
    17528.483800       0.818170
    17559.262500       0.818198
    17590.149500       0.818211
    17621.145400       0.818207
    17652.250700       0.818187
    17683.466000       0.818149
    17714.791900       0.818093
    17746.228900       0.818018
    17777.777800       0.817923
    17809.439000       0.817808
    17841.213200       0.817672
    17873.101000       0.817513
    17905.103000       0.817332
    17937.219700       0.817128
    17969.451900       0.816899
    18001.800200       0.816645
    18034.265100       0.816365
    18066.847300       0.816059
    18099.547500       0.815725
    18132.366300       0.815364
    18165.304300       0.814973
    18198.362100       0.814553
    18231.540600       0.814102
    18264.840200       0.813621
    18298.261700       0.813107
    18331.805700       0.812561
    18365.472900       0.811981
    18399.264000       0.811366
    18433.179700       0.810717
    18467.220700       0.810032
    18501.387600       0.809310
    18535.681200       0.808551
    18570.102100       0.807754
    18604.651200       0.806918
    18639.329000       0.806042
    18674.136300       0.805125
    18709.073900       0.804168
    18744.142500       0.803168
    18779.342700       0.802126
    18814.675400       0.801040
    18850.141400       0.799911
    18885.741300       0.798736
    18921.475900       0.797515
    18957.346000       0.796248
    18993.352300       0.794934
    19029.495700       0.793572
    19065.776900       0.792162
    19102.196800       0.790702
    19138.756000       0.789192
    19175.455400       0.787631
    19212.295900       0.786019
    19249.278200       0.784355
    19286.403100       0.782638
    19323.671500       0.780868
    19361.084200       0.779043
    19398.642100       0.777164
    19436.346000       0.775230
    19474.196700       0.773239
    19512.195100       0.771192
    19550.342100       0.769087
    19588.638600       0.766925
    19627.085400       0.764704
    19665.683400       0.762424
    19704.433500       0.760085
    19743.336600       0.757685
    19782.393700       0.755224
    19821.605600       0.752702
    19860.973200       0.750119
    19900.497500       0.747473
    19940.179500       0.744764
    19980.020000       0.741992
    20020.020000       0.739157
    20060.180500       0.736257
    20100.502500       0.733292
    20140.986900       0.730262
    20181.634700       0.727167
    20222.446900       0.724006
    20263.424500       0.720779
    20304.568500       0.717485
    20345.880000       0.714124
    20387.359800       0.710696
    20429.009200       0.707201
    20470.829100       0.703637
    20512.820500       0.700006
    20554.984600       0.696306
    20597.322300       0.692537
    20639.834900       0.688700
    20682.523300       0.684794
    20725.388600       0.680818
    20768.432000       0.676774
    20811.654500       0.672660
    20855.057400       0.668476
    20898.641600       0.664223
    20942.408400       0.659900
    20986.358900       0.655508
    21030.494200       0.651046
    21074.815600       0.646515
    21119.324200       0.641914
    21164.021200       0.637244
    21208.907700       0.632504
    21253.985100       0.627696
    21299.254500       0.622818
    21344.717200       0.617871
    21390.374300       0.612856
    21436.227200       0.607772
    21482.277100       0.602620
    21528.525300       0.597401
    21574.973000       0.592114
    21621.621600       0.586760
    21668.472400       0.581339
    21715.526600       0.575853
    21762.785600       0.570300
    21810.250800       0.564682
    21857.923500       0.559000
    21905.805000       0.553253
    21953.896800       0.547443
    22002.200200       0.541570
    22050.716600       0.535635
    22099.447500       0.529638
    22148.394200       0.523581
    22197.558300       0.517463
    22246.941000       0.511287
    22296.544000       0.505052
    22346.368700       0.498760
    22396.416600       0.492411
    22446.689100       0.486008
    22497.187900       0.479549
    22547.914300       0.473038
    22598.870100       0.466474
    22650.056600       0.459860
    22701.475600       0.453195
    22753.128600       0.446482
    22805.017100       0.439722
    22857.142900       0.432915
    22909.507400       0.426065
    22962.112500       0.419171
    23014.959700       0.412235
    23068.050700       0.405259
    23121.387300       0.398245
    23174.971000       0.391193
    23228.803700       0.384107
    23282.887100       0.376987
    23337.222900       0.369835
    23391.812900       0.362653
    23446.658900       0.355443
    23501.762600       0.348208
    23557.126000       0.340947
    23612.750900       0.333665
    23668.639100       0.326363
    23724.792400       0.319042
    23781.212800       0.311707
    23837.902300       0.304357
    23894.862600       0.296997
    23952.095800       0.289628
    24009.603800       0.282252
    24067.388700       0.274873
    24125.452400       0.267492
    24183.796900       0.260113
    24242.424200       0.252738
    24301.336600       0.245370
    24360.535900       0.238011
    24420.024400       0.230664
    24479.804200       0.223333
    24539.877300       0.216021
    24600.246000       0.208729
    24660.912500       0.201463
    24721.878900       0.194223
    24783.147500       0.187015
    24844.720500       0.179841
    24906.600200       0.172705
    24968.789000       0.165610
    25031.289100       0.158560
    25094.102900       0.151557
    25157.232700       0.144607
    25220.681000       0.137712
    25284.450100       0.130877
    25348.542500       0.124106
    25412.960600       0.117401
    25477.707000       0.110768
