11 , goes_08_sounder_11.flt
Number of data points:
1602
Wavenumber (cm-1)   Filter response
     1338.000000       0.001566
     1338.100000       0.001573
     1338.200000       0.001579
     1338.300000       0.001585
     1338.400000       0.001591
     1338.500000       0.001597
     1338.600000       0.001602
     1338.700000       0.001608
     1338.800000       0.001613
     1338.900000       0.001618
     1339.000000       0.001623
     1339.100000       0.001628
     1339.200000       0.001633
     1339.300000       0.001638
     1339.400000       0.001642
     1339.500000       0.001646
     1339.600000       0.001651
     1339.700000       0.001655
     1339.800000       0.001659
     1339.900000       0.001663
     1340.000000       0.001667
     1340.100000       0.001671
     1340.200000       0.001675
     1340.300000       0.001678
     1340.400000       0.001682
     1340.500000       0.001685
     1340.600000       0.001689
     1340.700000       0.001692
     1340.800000       0.001696
     1340.900000       0.001699
     1341.000000       0.001702
     1341.100000       0.001706
     1341.200000       0.001709
     1341.300000       0.001712
     1341.400000       0.001715
     1341.500000       0.001719
     1341.600000       0.001722
     1341.700000       0.001725
     1341.800000       0.001728
     1341.900000       0.001732
     1342.000000       0.001735
     1342.100000       0.001738
     1342.200000       0.001741
     1342.300000       0.001744
     1342.400000       0.001748
     1342.500000       0.001751
     1342.600000       0.001754
     1342.700000       0.001758
     1342.800000       0.001761
     1342.900000       0.001764
     1343.000000       0.001768
     1343.100000       0.001771
     1343.200000       0.001775
     1343.300000       0.001778
     1343.400000       0.001782
     1343.500000       0.001785
     1343.600000       0.001789
     1343.700000       0.001792
     1343.800000       0.001796
     1343.900000       0.001800
     1344.000000       0.001803
     1344.100000       0.001807
     1344.200000       0.001811
     1344.300000       0.001815
     1344.400000       0.001818
     1344.500000       0.001822
     1344.600000       0.001826
     1344.700000       0.001830
     1344.800000       0.001834
     1344.900000       0.001838
     1345.000000       0.001842
     1345.100000       0.001847
     1345.200000       0.001851
     1345.300000       0.001855
     1345.400000       0.001859
     1345.500000       0.001864
     1345.600000       0.001868
     1345.700000       0.001873
     1345.800000       0.001877
     1345.900000       0.001882
     1346.000000       0.001887
     1346.100000       0.001891
     1346.200000       0.001896
     1346.300000       0.001901
     1346.400000       0.001906
     1346.500000       0.001911
     1346.600000       0.001916
     1346.700000       0.001921
     1346.800000       0.001927
     1346.900000       0.001932
     1347.000000       0.001938
     1347.100000       0.001943
     1347.200000       0.001949
     1347.300000       0.001955
     1347.400000       0.001960
     1347.500000       0.001966
     1347.600000       0.001972
     1347.700000       0.001978
     1347.800000       0.001985
     1347.900000       0.001991
     1348.000000       0.001998
     1348.100000       0.002004
     1348.200000       0.002011
     1348.300000       0.002018
     1348.400000       0.002025
     1348.500000       0.002031
     1348.600000       0.002038
     1348.700000       0.002045
     1348.800000       0.002052
     1348.900000       0.002059
     1349.000000       0.002066
     1349.100000       0.002073
     1349.200000       0.002080
     1349.300000       0.002087
     1349.400000       0.002095
     1349.500000       0.002102
     1349.600000       0.002109
     1349.700000       0.002116
     1349.800000       0.002123
     1349.900000       0.002130
     1350.000000       0.002137
     1350.100000       0.002144
     1350.200000       0.002150
     1350.300000       0.002157
     1350.400000       0.002164
     1350.500000       0.002171
     1350.600000       0.002177
     1350.700000       0.002184
     1350.800000       0.002190
     1350.900000       0.002197
     1351.000000       0.002203
     1351.100000       0.002209
     1351.200000       0.002215
     1351.300000       0.002221
     1351.400000       0.002227
     1351.500000       0.002233
     1351.600000       0.002239
     1351.700000       0.002244
     1351.800000       0.002249
     1351.900000       0.002255
     1352.000000       0.002260
     1352.100000       0.002264
     1352.200000       0.002269
     1352.300000       0.002274
     1352.400000       0.002278
     1352.500000       0.002282
     1352.600000       0.002286
     1352.700000       0.002289
     1352.800000       0.002293
     1352.900000       0.002296
     1353.000000       0.002299
     1353.100000       0.002302
     1353.200000       0.002304
     1353.300000       0.002306
     1353.400000       0.002308
     1353.500000       0.002309
     1353.600000       0.002310
     1353.700000       0.002311
     1353.800000       0.002311
     1353.900000       0.002311
     1354.000000       0.002311
     1354.100000       0.002310
     1354.200000       0.002309
     1354.300000       0.002307
     1354.400000       0.002305
     1354.500000       0.002303
     1354.600000       0.002300
     1354.700000       0.002296
     1354.800000       0.002292
     1354.900000       0.002287
     1355.000000       0.002282
     1355.100000       0.002276
     1355.200000       0.002269
     1355.300000       0.002262
     1355.400000       0.002255
     1355.500000       0.002246
     1355.600000       0.002237
     1355.700000       0.002227
     1355.800000       0.002217
     1355.900000       0.002205
     1356.000000       0.002193
     1356.100000       0.002180
     1356.200000       0.002166
     1356.300000       0.002152
     1356.400000       0.002136
     1356.500000       0.002120
     1356.600000       0.002102
     1356.700000       0.002084
     1356.800000       0.002064
     1356.900000       0.002044
     1357.000000       0.002022
     1357.100000       0.001999
     1357.200000       0.001975
     1357.300000       0.001949
     1357.400000       0.001922
     1357.500000       0.001894
     1357.600000       0.001865
     1357.700000       0.001834
     1357.800000       0.001802
     1357.900000       0.001769
     1358.000000       0.001734
     1358.100000       0.001699
     1358.200000       0.001664
     1358.300000       0.001627
     1358.400000       0.001590
     1358.500000       0.001553
     1358.600000       0.001515
     1358.700000       0.001477
     1358.800000       0.001438
     1358.900000       0.001400
     1359.000000       0.001365
     1359.100000       0.001328
     1359.200000       0.001289
     1359.300000       0.001251
     1359.400000       0.001214
     1359.500000       0.001177
     1359.600000       0.001140
     1359.700000       0.001105
     1359.800000       0.001069
     1359.900000       0.001035
     1360.000000       0.001002
     1360.100000       0.000969
     1360.200000       0.000938
     1360.300000       0.000907
     1360.400000       0.000879
     1360.500000       0.000851
     1360.600000       0.000825
     1360.700000       0.000801
     1360.800000       0.000778
     1360.900000       0.000758
     1361.000000       0.000739
     1361.100000       0.000723
     1361.200000       0.000708
     1361.300000       0.000697
     1361.400000       0.000687
     1361.500000       0.000681
     1361.600000       0.000677
     1361.700000       0.000676
     1361.800000       0.000678
     1361.900000       0.000684
     1362.000000       0.000693
     1362.100000       0.000705
     1362.200000       0.000722
     1362.300000       0.000742
     1362.400000       0.000766
     1362.500000       0.000795
     1362.600000       0.000828
     1362.700000       0.000867
     1362.800000       0.000910
     1362.900000       0.000958
     1363.000000       0.001011
     1363.100000       0.001071
     1363.200000       0.001136
     1363.300000       0.001207
     1363.400000       0.001284
     1363.500000       0.001368
     1363.600000       0.001458
     1363.700000       0.001553
     1363.800000       0.001655
     1363.900000       0.001762
     1364.000000       0.001875
     1364.100000       0.001993
     1364.200000       0.002117
     1364.300000       0.002247
     1364.400000       0.002382
     1364.500000       0.002523
     1364.600000       0.002669
     1364.700000       0.002820
     1364.800000       0.002977
     1364.900000       0.003140
     1365.000000       0.003308
     1365.100000       0.003482
     1365.200000       0.003661
     1365.300000       0.003846
     1365.400000       0.004037
     1365.500000       0.004234
     1365.600000       0.004436
     1365.700000       0.004645
     1365.800000       0.004860
     1365.900000       0.005081
     1366.000000       0.005308
     1366.100000       0.005542
     1366.200000       0.005783
     1366.300000       0.006031
     1366.400000       0.006286
     1366.500000       0.006548
     1366.600000       0.006817
     1366.700000       0.007095
     1366.800000       0.007380
     1366.900000       0.007674
     1367.000000       0.007976
     1367.100000       0.008286
     1367.200000       0.008607
     1367.300000       0.008936
     1367.400000       0.009275
     1367.500000       0.009625
     1367.600000       0.009984
     1367.700000       0.010355
     1367.800000       0.010737
     1367.900000       0.011130
     1368.000000       0.011535
     1368.100000       0.011951
     1368.200000       0.012378
     1368.300000       0.012819
     1368.400000       0.013270
     1368.500000       0.013733
     1368.600000       0.014208
     1368.700000       0.014696
     1368.800000       0.015197
     1368.900000       0.015711
     1369.000000       0.016238
     1369.100000       0.016778
     1369.200000       0.017332
     1369.300000       0.017901
     1369.400000       0.018485
     1369.500000       0.019084
     1369.600000       0.019697
     1369.700000       0.020327
     1369.800000       0.020973
     1369.900000       0.021636
     1370.000000       0.022318
     1370.100000       0.023016
     1370.200000       0.023729
     1370.300000       0.024469
     1370.400000       0.025218
     1370.500000       0.025942
     1370.600000       0.026688
     1370.700000       0.027492
     1370.800000       0.028319
     1370.900000       0.029157
     1371.000000       0.030016
     1371.100000       0.030896
     1371.200000       0.031795
     1371.300000       0.032715
     1371.400000       0.033654
     1371.500000       0.034614
     1371.600000       0.035596
     1371.700000       0.036600
     1371.800000       0.037627
     1371.900000       0.038675
     1372.000000       0.039747
     1372.100000       0.040843
     1372.200000       0.041964
     1372.300000       0.043115
     1372.400000       0.044294
     1372.500000       0.045502
     1372.600000       0.046745
     1372.700000       0.048023
     1372.800000       0.049340
     1372.900000       0.050696
     1373.000000       0.052093
     1373.100000       0.053535
     1373.200000       0.055023
     1373.300000       0.056565
     1373.400000       0.058158
     1373.500000       0.059806
     1373.600000       0.061512
     1373.700000       0.063278
     1373.800000       0.065111
     1373.900000       0.067011
     1374.000000       0.068980
     1374.100000       0.071022
     1374.200000       0.073141
     1374.300000       0.075341
     1374.400000       0.077622
     1374.500000       0.079989
     1374.600000       0.082442
     1374.700000       0.084981
     1374.800000       0.087616
     1374.900000       0.090340
     1375.000000       0.093163
     1375.100000       0.096084
     1375.200000       0.099109
     1375.300000       0.102245
     1375.400000       0.105487
     1375.500000       0.108843
     1375.600000       0.112317
     1375.700000       0.115905
     1375.800000       0.119604
     1375.900000       0.123399
     1376.000000       0.127296
     1376.100000       0.131288
     1376.200000       0.135371
     1376.300000       0.139548
     1376.400000       0.143807
     1376.500000       0.148145
     1376.600000       0.152564
     1376.700000       0.157060
     1376.800000       0.161636
     1376.900000       0.166275
     1377.000000       0.170980
     1377.100000       0.175752
     1377.200000       0.180587
     1377.300000       0.185489
     1377.400000       0.190445
     1377.500000       0.195457
     1377.600000       0.200524
     1377.700000       0.205652
     1377.800000       0.210855
     1377.900000       0.216132
     1378.000000       0.221492
     1378.100000       0.226942
     1378.200000       0.232497
     1378.300000       0.238171
     1378.400000       0.243958
     1378.500000       0.249878
     1378.600000       0.255937
     1378.700000       0.262147
     1378.800000       0.268526
     1378.900000       0.275066
     1379.000000       0.281791
     1379.100000       0.288710
     1379.200000       0.295837
     1379.300000       0.303188
     1379.400000       0.310749
     1379.500000       0.318549
     1379.600000       0.326611
     1379.700000       0.334941
     1379.800000       0.343545
     1379.900000       0.352403
     1380.000000       0.361531
     1380.100000       0.370934
     1380.200000       0.380611
     1380.300000       0.390588
     1380.400000       0.400832
     1380.500000       0.411352
     1380.600000       0.422157
     1380.700000       0.433268
     1380.800000       0.444688
     1380.900000       0.456302
     1381.000000       0.468052
     1381.100000       0.479869
     1381.200000       0.491669
     1381.300000       0.503399
     1381.400000       0.514955
     1381.500000       0.526265
     1381.600000       0.537251
     1381.700000       0.547865
     1381.800000       0.558138
     1381.900000       0.568107
     1382.000000       0.577922
     1382.100000       0.587366
     1382.200000       0.596140
     1382.300000       0.604931
     1382.400000       0.614109
     1382.500000       0.623266
     1382.600000       0.632343
     1382.700000       0.641480
     1382.800000       0.650690
     1382.900000       0.659939
     1383.000000       0.669224
     1383.100000       0.678504
     1383.200000       0.687742
     1383.300000       0.696924
     1383.400000       0.706001
     1383.500000       0.714950
     1383.600000       0.723750
     1383.700000       0.732368
     1383.800000       0.740771
     1383.900000       0.748917
     1384.000000       0.756822
     1384.100000       0.764542
     1384.200000       0.772111
     1384.300000       0.779561
     1384.400000       0.786924
     1384.500000       0.794249
     1384.600000       0.801572
     1384.700000       0.808936
     1384.800000       0.816388
     1384.900000       0.823939
     1385.000000       0.831636
     1385.100000       0.839532
     1385.200000       0.847667
     1385.300000       0.856040
     1385.400000       0.864561
     1385.500000       0.873113
     1385.600000       0.881572
     1385.700000       0.889822
     1385.800000       0.897768
     1385.900000       0.905266
     1386.000000       0.912199
     1386.100000       0.918451
     1386.200000       0.923916
     1386.300000       0.928637
     1386.400000       0.932660
     1386.500000       0.936081
     1386.600000       0.938983
     1386.700000       0.941433
     1386.800000       0.943523
     1386.900000       0.945320
     1387.000000       0.946879
     1387.100000       0.948223
     1387.200000       0.949365
     1387.300000       0.950324
     1387.400000       0.951117
     1387.500000       0.951756
     1387.600000       0.952261
     1387.700000       0.952646
     1387.800000       0.952926
     1387.900000       0.953115
     1388.000000       0.953230
     1388.100000       0.953284
     1388.200000       0.953294
     1388.300000       0.953272
     1388.400000       0.953235
     1388.500000       0.953196
     1388.600000       0.953168
     1388.700000       0.953155
     1388.800000       0.953158
     1388.900000       0.953178
     1389.000000       0.953214
     1389.100000       0.953267
     1389.200000       0.953341
     1389.300000       0.953434
     1389.400000       0.953549
     1389.500000       0.953684
     1389.600000       0.953842
     1389.700000       0.954025
     1389.800000       0.954232
     1389.900000       0.954466
     1390.000000       0.954725
     1390.100000       0.955013
     1390.200000       0.955330
     1390.300000       0.955679
     1390.400000       0.956061
     1390.500000       0.956476
     1390.600000       0.956922
     1390.700000       0.957397
     1390.800000       0.957899
     1390.900000       0.958428
     1391.000000       0.958979
     1391.100000       0.959551
     1391.200000       0.960144
     1391.300000       0.960753
     1391.400000       0.961375
     1391.500000       0.962007
     1391.600000       0.962648
     1391.700000       0.963296
     1391.800000       0.963949
     1391.900000       0.964600
     1392.000000       0.965250
     1392.100000       0.965896
     1392.200000       0.966535
     1392.300000       0.967165
     1392.400000       0.967782
     1392.500000       0.968386
     1392.600000       0.968979
     1392.700000       0.969561
     1392.800000       0.970134
     1392.900000       0.970693
     1393.000000       0.971243
     1393.100000       0.971781
     1393.200000       0.972308
     1393.300000       0.972826
     1393.400000       0.973330
     1393.500000       0.973822
     1393.600000       0.974303
     1393.700000       0.974772
     1393.800000       0.975229
     1393.900000       0.975673
     1394.000000       0.976101
     1394.100000       0.976516
     1394.200000       0.976914
     1394.300000       0.977299
     1394.400000       0.977670
     1394.500000       0.978030
     1394.600000       0.978377
     1394.700000       0.978715
     1394.800000       0.979045
     1394.900000       0.979365
     1395.000000       0.979677
     1395.100000       0.979983
     1395.200000       0.980283
     1395.300000       0.980578
     1395.400000       0.980867
     1395.500000       0.981154
     1395.600000       0.981437
     1395.700000       0.981718
     1395.800000       0.982000
     1395.900000       0.982281
     1396.000000       0.982562
     1396.100000       0.982845
     1396.200000       0.983132
     1396.300000       0.983424
     1396.400000       0.983721
     1396.500000       0.984026
     1396.600000       0.984339
     1396.700000       0.984661
     1396.800000       0.984994
     1396.900000       0.985339
     1397.000000       0.985698
     1397.100000       0.986071
     1397.200000       0.986458
     1397.300000       0.986860
     1397.400000       0.987275
     1397.500000       0.987700
     1397.600000       0.988139
     1397.700000       0.988590
     1397.800000       0.989053
     1397.900000       0.989524
     1398.000000       0.990005
     1398.100000       0.990492
     1398.200000       0.990982
     1398.300000       0.991472
     1398.400000       0.991960
     1398.500000       0.992442
     1398.600000       0.992915
     1398.700000       0.993378
     1398.800000       0.993831
     1398.900000       0.994269
     1399.000000       0.994692
     1399.100000       0.995101
     1399.200000       0.995493
     1399.300000       0.995866
     1399.400000       0.996220
     1399.500000       0.996553
     1399.600000       0.996863
     1399.700000       0.997149
     1399.800000       0.997411
     1399.900000       0.997647
     1400.000000       0.997853
     1400.100000       0.998030
     1400.200000       0.998175
     1400.300000       0.998287
     1400.400000       0.998364
     1400.500000       0.998404
     1400.600000       0.998405
     1400.700000       0.998368
     1400.800000       0.998295
     1400.900000       0.998191
     1401.000000       0.998058
     1401.100000       0.997904
     1401.200000       0.997729
     1401.300000       0.997537
     1401.400000       0.997334
     1401.500000       0.997125
     1401.600000       0.996910
     1401.700000       0.996695
     1401.800000       0.996482
     1401.900000       0.996277
     1402.000000       0.996083
     1402.100000       0.995905
     1402.200000       0.995744
     1402.300000       0.995602
     1402.400000       0.995486
     1402.500000       0.995395
     1402.600000       0.995329
     1402.700000       0.995294
     1402.800000       0.995291
     1402.900000       0.995322
     1403.000000       0.995387
     1403.100000       0.995483
     1403.200000       0.995608
     1403.300000       0.995756
     1403.400000       0.995926
     1403.500000       0.996114
     1403.600000       0.996317
     1403.700000       0.996531
     1403.800000       0.996755
     1403.900000       0.996984
     1404.000000       0.997217
     1404.100000       0.997452
     1404.200000       0.997687
     1404.300000       0.997919
     1404.400000       0.998149
     1404.500000       0.998373
     1404.600000       0.998591
     1404.700000       0.998799
     1404.800000       0.998998
     1404.900000       0.999184
     1405.000000       0.999355
     1405.100000       0.999513
     1405.200000       0.999649
     1405.300000       0.999762
     1405.400000       0.999857
     1405.500000       0.999931
     1405.600000       0.999979
     1405.700000       1.000000
     1405.800000       0.999994
     1405.900000       0.999958
     1406.000000       0.999895
     1406.100000       0.999801
     1406.200000       0.999676
     1406.300000       0.999520
     1406.400000       0.999332
     1406.500000       0.999113
     1406.600000       0.998859
     1406.700000       0.998572
     1406.800000       0.998249
     1406.900000       0.997889
     1407.000000       0.997494
     1407.100000       0.997061
     1407.200000       0.996589
     1407.300000       0.996081
     1407.400000       0.995540
     1407.500000       0.994968
     1407.600000       0.994370
     1407.700000       0.993747
     1407.800000       0.993102
     1407.900000       0.992440
     1408.000000       0.991761
     1408.100000       0.991069
     1408.200000       0.990366
     1408.300000       0.989655
     1408.400000       0.988941
     1408.500000       0.988223
     1408.600000       0.987506
     1408.700000       0.986792
     1408.800000       0.986085
     1408.900000       0.985387
     1409.000000       0.984700
     1409.100000       0.984028
     1409.200000       0.983372
     1409.300000       0.982736
     1409.400000       0.982121
     1409.500000       0.981529
     1409.600000       0.980960
     1409.700000       0.980412
     1409.800000       0.979883
     1409.900000       0.979373
     1410.000000       0.978881
     1410.100000       0.978406
     1410.200000       0.977946
     1410.300000       0.977500
     1410.400000       0.977067
     1410.500000       0.976646
     1410.600000       0.976236
     1410.700000       0.975835
     1410.800000       0.975441
     1410.900000       0.975054
     1411.000000       0.974670
     1411.100000       0.974289
     1411.200000       0.973910
     1411.300000       0.973530
     1411.400000       0.973150
     1411.500000       0.972768
     1411.600000       0.972383
     1411.700000       0.971997
     1411.800000       0.971606
     1411.900000       0.971210
     1412.000000       0.970810
     1412.100000       0.970406
     1412.200000       0.969997
     1412.300000       0.969588
     1412.400000       0.969177
     1412.500000       0.968765
     1412.600000       0.968354
     1412.700000       0.967943
     1412.800000       0.967533
     1412.900000       0.967125
     1413.000000       0.966720
     1413.100000       0.966321
     1413.200000       0.965925
     1413.300000       0.965537
     1413.400000       0.965156
     1413.500000       0.964784
     1413.600000       0.964425
     1413.700000       0.964082
     1413.800000       0.963757
     1413.900000       0.963453
     1414.000000       0.963171
     1414.100000       0.962914
     1414.200000       0.962687
     1414.300000       0.962491
     1414.400000       0.962328
     1414.500000       0.962202
     1414.600000       0.962115
     1414.700000       0.962071
     1414.800000       0.962074
     1414.900000       0.962125
     1415.000000       0.962229
     1415.100000       0.962386
     1415.200000       0.962599
     1415.300000       0.962867
     1415.400000       0.963187
     1415.500000       0.963557
     1415.600000       0.963976
     1415.700000       0.964441
     1415.800000       0.964950
     1415.900000       0.965496
     1416.000000       0.966079
     1416.100000       0.966695
     1416.200000       0.967342
     1416.300000       0.968014
     1416.400000       0.968710
     1416.500000       0.969425
     1416.600000       0.970154
     1416.700000       0.970901
     1416.800000       0.971666
     1416.900000       0.972396
     1417.000000       0.973100
     1417.100000       0.973844
     1417.200000       0.974606
     1417.300000       0.975344
     1417.400000       0.976061
     1417.500000       0.976759
     1417.600000       0.977431
     1417.700000       0.978074
     1417.800000       0.978684
     1417.900000       0.979258
     1418.000000       0.979792
     1418.100000       0.980281
     1418.200000       0.980722
     1418.300000       0.981112
     1418.400000       0.981445
     1418.500000       0.981720
     1418.600000       0.981930
     1418.700000       0.982070
     1418.800000       0.982142
     1418.900000       0.982146
     1419.000000       0.982084
     1419.100000       0.981959
     1419.200000       0.981771
     1419.300000       0.981527
     1419.400000       0.981226
     1419.500000       0.980871
     1419.600000       0.980464
     1419.700000       0.980007
     1419.800000       0.979503
     1419.900000       0.978955
     1420.000000       0.978362
     1420.100000       0.977728
     1420.200000       0.977055
     1420.300000       0.976348
     1420.400000       0.975613
     1420.500000       0.974854
     1420.600000       0.974078
     1420.700000       0.973289
     1420.800000       0.972491
     1420.900000       0.971692
     1421.000000       0.970895
     1421.100000       0.970106
     1421.200000       0.969330
     1421.300000       0.968572
     1421.400000       0.967836
     1421.500000       0.967130
     1421.600000       0.966457
     1421.700000       0.965822
     1421.800000       0.965231
     1421.900000       0.964691
     1422.000000       0.964202
     1422.100000       0.963766
     1422.200000       0.963375
     1422.300000       0.963027
     1422.400000       0.962716
     1422.500000       0.962438
     1422.600000       0.962188
     1422.700000       0.961961
     1422.800000       0.961753
     1422.900000       0.961561
     1423.000000       0.961380
     1423.100000       0.961203
     1423.200000       0.961028
     1423.300000       0.960849
     1423.400000       0.960664
     1423.500000       0.960466
     1423.600000       0.960251
     1423.700000       0.960015
     1423.800000       0.959753
     1423.900000       0.959461
     1424.000000       0.959131
     1424.100000       0.958762
     1424.200000       0.958347
     1424.300000       0.957879
     1424.400000       0.957356
     1424.500000       0.956771
     1424.600000       0.956117
     1424.700000       0.955402
     1424.800000       0.954639
     1424.900000       0.953848
     1425.000000       0.953042
     1425.100000       0.952235
     1425.200000       0.951442
     1425.300000       0.950680
     1425.400000       0.949967
     1425.500000       0.949314
     1425.600000       0.948741
     1425.700000       0.948261
     1425.800000       0.947894
     1425.900000       0.947657
     1426.000000       0.947550
     1426.100000       0.947567
     1426.200000       0.947694
     1426.300000       0.947918
     1426.400000       0.948231
     1426.500000       0.948617
     1426.600000       0.949066
     1426.700000       0.949565
     1426.800000       0.950102
     1426.900000       0.950662
     1427.000000       0.951233
     1427.100000       0.951805
     1427.200000       0.952362
     1427.300000       0.952892
     1427.400000       0.953385
     1427.500000       0.953837
     1427.600000       0.954247
     1427.700000       0.954614
     1427.800000       0.954938
     1427.900000       0.955217
     1428.000000       0.955452
     1428.100000       0.955640
     1428.200000       0.955779
     1428.300000       0.955869
     1428.400000       0.955915
     1428.500000       0.955919
     1428.600000       0.955867
     1428.700000       0.955753
     1428.800000       0.955586
     1428.900000       0.955366
     1429.000000       0.955088
     1429.100000       0.954755
     1429.200000       0.954368
     1429.300000       0.953927
     1429.400000       0.953433
     1429.500000       0.952887
     1429.600000       0.952291
     1429.700000       0.951645
     1429.800000       0.950948
     1429.900000       0.950203
     1430.000000       0.949411
     1430.100000       0.948571
     1430.200000       0.947687
     1430.300000       0.946765
     1430.400000       0.945808
     1430.500000       0.944824
     1430.600000       0.943816
     1430.700000       0.942792
     1430.800000       0.941755
     1430.900000       0.940711
     1431.000000       0.939664
     1431.100000       0.938622
     1431.200000       0.937588
     1431.300000       0.936568
     1431.400000       0.935568
     1431.500000       0.934592
     1431.600000       0.933645
     1431.700000       0.932734
     1431.800000       0.931863
     1431.900000       0.931037
     1432.000000       0.930262
     1432.100000       0.929543
     1432.200000       0.928883
     1432.300000       0.928282
     1432.400000       0.927743
     1432.500000       0.927271
     1432.600000       0.926874
     1432.700000       0.926558
     1432.800000       0.926332
     1432.900000       0.926201
     1433.000000       0.926172
     1433.100000       0.926254
     1433.200000       0.926452
     1433.300000       0.926776
     1433.400000       0.927231
     1433.500000       0.927817
     1433.600000       0.928525
     1433.700000       0.929343
     1433.800000       0.930261
     1433.900000       0.931264
     1434.000000       0.932342
     1434.100000       0.933485
     1434.200000       0.934681
     1434.300000       0.935921
     1434.400000       0.937193
     1434.500000       0.938487
     1434.600000       0.939789
     1434.700000       0.941089
     1434.800000       0.942377
     1434.900000       0.943638
     1435.000000       0.944862
     1435.100000       0.946035
     1435.200000       0.947148
     1435.300000       0.948189
     1435.400000       0.949143
     1435.500000       0.949997
     1435.600000       0.950746
     1435.700000       0.951387
     1435.800000       0.951929
     1435.900000       0.952379
     1436.000000       0.952744
     1436.100000       0.953031
     1436.200000       0.953246
     1436.300000       0.953400
     1436.400000       0.953498
     1436.500000       0.953551
     1436.600000       0.953566
     1436.700000       0.953551
     1436.800000       0.953515
     1436.900000       0.953466
     1437.000000       0.953412
     1437.100000       0.953362
     1437.200000       0.953323
     1437.300000       0.953304
     1437.400000       0.953309
     1437.500000       0.953342
     1437.600000       0.953399
     1437.700000       0.953478
     1437.800000       0.953581
     1437.900000       0.953704
     1438.000000       0.953847
     1438.100000       0.954008
     1438.200000       0.954186
     1438.300000       0.954382
     1438.400000       0.954592
     1438.500000       0.954817
     1438.600000       0.955055
     1438.700000       0.955306
     1438.800000       0.955569
     1438.900000       0.955841
     1439.000000       0.956123
     1439.100000       0.956414
     1439.200000       0.956714
     1439.300000       0.957021
     1439.400000       0.957334
     1439.500000       0.957652
     1439.600000       0.957974
     1439.700000       0.958299
     1439.800000       0.958630
     1439.900000       0.958958
     1440.000000       0.959272
     1440.100000       0.959586
     1440.200000       0.959912
     1440.300000       0.960234
     1440.400000       0.960551
     1440.500000       0.960861
     1440.600000       0.961168
     1440.700000       0.961468
     1440.800000       0.961763
     1440.900000       0.962050
     1441.000000       0.962330
     1441.100000       0.962603
     1441.200000       0.962869
     1441.300000       0.963127
     1441.400000       0.963376
     1441.500000       0.963617
     1441.600000       0.963848
     1441.700000       0.964069
     1441.800000       0.964280
     1441.900000       0.964479
     1442.000000       0.964667
     1442.100000       0.964843
     1442.200000       0.965007
     1442.300000       0.965159
     1442.400000       0.965299
     1442.500000       0.965426
     1442.600000       0.965543
     1442.700000       0.965656
     1442.800000       0.965769
     1442.900000       0.965884
     1443.000000       0.966009
     1443.100000       0.966148
     1443.200000       0.966305
     1443.300000       0.966483
     1443.400000       0.966688
     1443.500000       0.966924
     1443.600000       0.967196
     1443.700000       0.967507
     1443.800000       0.967860
     1443.900000       0.968255
     1444.000000       0.968691
     1444.100000       0.969167
     1444.200000       0.969684
     1444.300000       0.970243
     1444.400000       0.970841
     1444.500000       0.971479
     1444.600000       0.972147
     1444.700000       0.972834
     1444.800000       0.973530
     1444.900000       0.974224
     1445.000000       0.974904
     1445.100000       0.975559
     1445.200000       0.976178
     1445.300000       0.976751
     1445.400000       0.977267
     1445.500000       0.977717
     1445.600000       0.978090
     1445.700000       0.978377
     1445.800000       0.978564
     1445.900000       0.978643
     1446.000000       0.978604
     1446.100000       0.978434
     1446.200000       0.978137
     1446.300000       0.977712
     1446.400000       0.977170
     1446.500000       0.976517
     1446.600000       0.975757
     1446.700000       0.974899
     1446.800000       0.973947
     1446.900000       0.972909
     1447.000000       0.971791
     1447.100000       0.970600
     1447.200000       0.969342
     1447.300000       0.968019
     1447.400000       0.966641
     1447.500000       0.965214
     1447.600000       0.963742
     1447.700000       0.962225
     1447.800000       0.960665
     1447.900000       0.959067
     1448.000000       0.957431
     1448.100000       0.955761
     1448.200000       0.954060
     1448.300000       0.952326
     1448.400000       0.950565
     1448.500000       0.948781
     1448.600000       0.946972
     1448.700000       0.945144
     1448.800000       0.943297
     1448.900000       0.941437
     1449.000000       0.939565
     1449.100000       0.937682
     1449.200000       0.935791
     1449.300000       0.933896
     1449.400000       0.932000
     1449.500000       0.930103
     1449.600000       0.928209
     1449.700000       0.926321
     1449.800000       0.924436
     1449.900000       0.922562
     1450.000000       0.920698
     1450.100000       0.918847
     1450.200000       0.917006
     1450.300000       0.915178
     1450.400000       0.913369
     1450.500000       0.911578
     1450.600000       0.909805
     1450.700000       0.908052
     1450.800000       0.906319
     1450.900000       0.904611
     1451.000000       0.902931
     1451.100000       0.901285
     1451.200000       0.899675
     1451.300000       0.898106
     1451.400000       0.896577
     1451.500000       0.895079
     1451.600000       0.893635
     1451.700000       0.892280
     1451.800000       0.890947
     1451.900000       0.889601
     1452.000000       0.888289
     1452.100000       0.887022
     1452.200000       0.885788
     1452.300000       0.884589
     1452.400000       0.883426
     1452.500000       0.882299
     1452.600000       0.881207
     1452.700000       0.880151
     1452.800000       0.879131
     1452.900000       0.878150
     1453.000000       0.877209
     1453.100000       0.876309
     1453.200000       0.875450
     1453.300000       0.874637
     1453.400000       0.873869
     1453.500000       0.873148
     1453.600000       0.872477
     1453.700000       0.871856
     1453.800000       0.871288
     1453.900000       0.870772
     1454.000000       0.870316
     1454.100000       0.869931
     1454.200000       0.869622
     1454.300000       0.869403
     1454.400000       0.869281
     1454.500000       0.869264
     1454.600000       0.869367
     1454.700000       0.869596
     1454.800000       0.869962
     1454.900000       0.870478
     1455.000000       0.871144
     1455.100000       0.871960
     1455.200000       0.872925
     1455.300000       0.874038
     1455.400000       0.875293
     1455.500000       0.876676
     1455.600000       0.878175
     1455.700000       0.879776
     1455.800000       0.881470
     1455.900000       0.883236
     1456.000000       0.885054
     1456.100000       0.886888
     1456.200000       0.888694
     1456.300000       0.890440
     1456.400000       0.892085
     1456.500000       0.893589
     1456.600000       0.894917
     1456.700000       0.896026
     1456.800000       0.896880
     1456.900000       0.897479
     1457.000000       0.897846
     1457.100000       0.898017
     1457.200000       0.898018
     1457.300000       0.897882
     1457.400000       0.897641
     1457.500000       0.897329
     1457.600000       0.896977
     1457.700000       0.896590
     1457.800000       0.896161
     1457.900000       0.895683
     1458.000000       0.895149
     1458.100000       0.894548
     1458.200000       0.893868
     1458.300000       0.893095
     1458.400000       0.892219
     1458.500000       0.891228
     1458.600000       0.890107
     1458.700000       0.888845
     1458.800000       0.887430
     1458.900000       0.885847
     1459.000000       0.884085
     1459.100000       0.882132
     1459.200000       0.879978
     1459.300000       0.877620
     1459.400000       0.875054
     1459.500000       0.872280
     1459.600000       0.869294
     1459.700000       0.866088
     1459.800000       0.862667
     1459.900000       0.859044
     1460.000000       0.855235
     1460.100000       0.851265
     1460.200000       0.847149
     1460.300000       0.842898
     1460.400000       0.838534
     1460.500000       0.834065
     1460.600000       0.829511
     1460.700000       0.824872
     1460.800000       0.820136
     1460.900000       0.815312
     1461.000000       0.810380
     1461.100000       0.805334
     1461.200000       0.800164
     1461.300000       0.794859
     1461.400000       0.789420
     1461.500000       0.783822
     1461.600000       0.778053
     1461.700000       0.772111
     1461.800000       0.765979
     1461.900000       0.759657
     1462.000000       0.753128
     1462.100000       0.746378
     1462.200000       0.739395
     1462.300000       0.732160
     1462.400000       0.724718
     1462.500000       0.717071
     1462.600000       0.709221
     1462.700000       0.701194
     1462.800000       0.693013
     1462.900000       0.684729
     1463.000000       0.676263
     1463.100000       0.667733
     1463.200000       0.659604
     1463.300000       0.651541
     1463.400000       0.642977
     1463.500000       0.634266
     1463.600000       0.625665
     1463.700000       0.617052
     1463.800000       0.608398
     1463.900000       0.599747
     1464.000000       0.591086
     1464.100000       0.582414
     1464.200000       0.573725
     1464.300000       0.565008
     1464.400000       0.556281
     1464.500000       0.547525
     1464.600000       0.538732
     1464.700000       0.529898
     1464.800000       0.521007
     1464.900000       0.512081
     1465.000000       0.503109
     1465.100000       0.494084
     1465.200000       0.485004
     1465.300000       0.475870
     1465.400000       0.466701
     1465.500000       0.457477
     1465.600000       0.448202
     1465.700000       0.438877
     1465.800000       0.429486
     1465.900000       0.420060
     1466.000000       0.410591
     1466.100000       0.401090
     1466.200000       0.391557
     1466.300000       0.381986
     1466.400000       0.372416
     1466.500000       0.362845
     1466.600000       0.353276
     1466.700000       0.343716
     1466.800000       0.334167
     1466.900000       0.324663
     1467.000000       0.315209
     1467.100000       0.305829
     1467.200000       0.296549
     1467.300000       0.287380
     1467.400000       0.278367
     1467.500000       0.269533
     1467.600000       0.260905
     1467.700000       0.252506
     1467.800000       0.244350
     1467.900000       0.236485
     1468.000000       0.228908
     1468.100000       0.221613
     1468.200000       0.214590
     1468.300000       0.207816
     1468.400000       0.201297
     1468.500000       0.195013
     1468.600000       0.188953
     1468.700000       0.183115
     1468.800000       0.177481
     1468.900000       0.172050
     1469.000000       0.166806
     1469.100000       0.161736
     1469.200000       0.156836
     1469.300000       0.152096
     1469.400000       0.147518
     1469.500000       0.143086
     1469.600000       0.138789
     1469.700000       0.134623
     1469.800000       0.130581
     1469.900000       0.126662
     1470.000000       0.122854
     1470.100000       0.119150
     1470.200000       0.115539
     1470.300000       0.112014
     1470.400000       0.108577
     1470.500000       0.105220
     1470.600000       0.101936
     1470.700000       0.098721
     1470.800000       0.095570
     1470.900000       0.092494
     1471.000000       0.089486
     1471.100000       0.086546
     1471.200000       0.083671
     1471.300000       0.080854
     1471.400000       0.078106
     1471.500000       0.075421
     1471.600000       0.072804
     1471.700000       0.070251
     1471.800000       0.067759
     1471.900000       0.065336
     1472.000000       0.062979
     1472.100000       0.060691
     1472.200000       0.058474
     1472.300000       0.056324
     1472.400000       0.054246
     1472.500000       0.052240
     1472.600000       0.050310
     1472.700000       0.048458
     1472.800000       0.046679
     1472.900000       0.044973
     1473.000000       0.043337
     1473.100000       0.041767
     1473.200000       0.040260
     1473.300000       0.038817
     1473.400000       0.037435
     1473.500000       0.036109
     1473.600000       0.034838
     1473.700000       0.033620
     1473.800000       0.032453
     1473.900000       0.031337
     1474.000000       0.030268
     1474.100000       0.029246
     1474.200000       0.028266
     1474.300000       0.027329
     1474.400000       0.026435
     1474.500000       0.025576
     1474.600000       0.024751
     1474.700000       0.023990
     1474.800000       0.023288
     1474.900000       0.022589
     1475.000000       0.021896
     1475.100000       0.021243
     1475.200000       0.020621
     1475.300000       0.020025
     1475.400000       0.019457
     1475.500000       0.018913
     1475.600000       0.018392
     1475.700000       0.017892
     1475.800000       0.017411
     1475.900000       0.016948
     1476.000000       0.016501
     1476.100000       0.016070
     1476.200000       0.015652
     1476.300000       0.015245
     1476.400000       0.014850
     1476.500000       0.014464
     1476.600000       0.014087
     1476.700000       0.013717
     1476.800000       0.013352
     1476.900000       0.012992
     1477.000000       0.012636
     1477.100000       0.012281
     1477.200000       0.011927
     1477.300000       0.011573
     1477.400000       0.011217
     1477.500000       0.010858
     1477.600000       0.010494
     1477.700000       0.010125
     1477.800000       0.009748
     1477.900000       0.009364
     1478.000000       0.008971
     1478.100000       0.008570
     1478.200000       0.008164
     1478.300000       0.007753
     1478.400000       0.007338
     1478.500000       0.006921
     1478.600000       0.006503
     1478.700000       0.006085
     1478.800000       0.005667
     1478.900000       0.005252
     1479.000000       0.004840
     1479.100000       0.004433
     1479.200000       0.004032
     1479.300000       0.003638
     1479.400000       0.003252
     1479.500000       0.002877
     1479.600000       0.002513
     1479.700000       0.002161
     1479.800000       0.001824
     1479.900000       0.001503
     1480.000000       0.001197
     1480.100000       0.000912
     1480.200000       0.000649
     1480.300000       0.000386
     1480.400000       0.000143
     1480.500000       0.000022
     1480.600000       0.000000
     1480.700000       0.000000
     1480.800000       0.000000
     1480.900000       0.000000
     1481.000000       0.000000
     1481.100000       0.000000
     1481.200000       0.000000
     1481.300000       0.000000
     1481.400000       0.000000
     1481.500000       0.000000
     1481.600000       0.000000
     1481.700000       0.000000
     1481.800000       0.000000
     1481.900000       0.000000
     1482.000000       0.000000
     1482.100000       0.000000
     1482.200000       0.000000
     1482.300000       0.000000
     1482.400000       0.000000
     1482.500000       0.000000
     1482.600000       0.000000
     1482.700000       0.000000
     1482.800000       0.000000
     1482.900000       0.000000
     1483.000000       0.000000
     1483.100000       0.000000
     1483.200000       0.000000
     1483.300000       0.000000
     1483.400000       0.000000
     1483.500000       0.000000
     1483.600000       0.000000
     1483.700000       0.000000
     1483.800000       0.000000
     1483.900000       0.000000
     1484.000000       0.000000
     1484.100000       0.000000
     1484.200000       0.000000
     1484.300000       0.000000
     1484.400000       0.000000
     1484.500000       0.000000
     1484.600000       0.000000
     1484.700000       0.000000
     1484.800000       0.000000
     1484.900000       0.000000
     1485.000000       0.000000
     1485.100000       0.000000
     1485.200000       0.000000
     1485.300000       0.000000
     1485.400000       0.000000
     1485.500000       0.000002
     1485.600000       0.000000
     1485.700000       0.000000
     1485.800000       0.000053
     1485.900000       0.000137
     1486.000000       0.000224
     1486.100000       0.000310
     1486.200000       0.000396
     1486.300000       0.000482
     1486.400000       0.000563
     1486.500000       0.000640
     1486.600000       0.000721
     1486.700000       0.000802
     1486.800000       0.000882
     1486.900000       0.000959
     1487.000000       0.001035
     1487.100000       0.001109
     1487.200000       0.001181
     1487.300000       0.001251
     1487.400000       0.001318
     1487.500000       0.001383
     1487.600000       0.001445
     1487.700000       0.001505
     1487.800000       0.001561
     1487.900000       0.001614
     1488.000000       0.001665
     1488.100000       0.001712
     1488.200000       0.001756
     1488.300000       0.001798
     1488.400000       0.001837
     1488.500000       0.001873
     1488.600000       0.001907
     1488.700000       0.001939
     1488.800000       0.001968
     1488.900000       0.001995
     1489.000000       0.002020
     1489.100000       0.002043
     1489.200000       0.002064
     1489.300000       0.002083
     1489.400000       0.002100
     1489.500000       0.002116
     1489.600000       0.002129
     1489.700000       0.002141
     1489.800000       0.002152
     1489.900000       0.002161
     1490.000000       0.002168
     1490.100000       0.002174
     1490.200000       0.002178
     1490.300000       0.002181
     1490.400000       0.002183
     1490.500000       0.002184
     1490.600000       0.002184
     1490.700000       0.002182
     1490.800000       0.002180
     1490.900000       0.002176
     1491.000000       0.002172
     1491.100000       0.002167
     1491.200000       0.002160
     1491.300000       0.002153
     1491.400000       0.002146
     1491.500000       0.002137
     1491.600000       0.002128
     1491.700000       0.002119
     1491.800000       0.002109
     1491.900000       0.002098
     1492.000000       0.002086
     1492.100000       0.002075
     1492.200000       0.002062
     1492.300000       0.002050
     1492.400000       0.002037
     1492.500000       0.002023
     1492.600000       0.002010
     1492.700000       0.001996
     1492.800000       0.001982
     1492.900000       0.001967
     1493.000000       0.001953
     1493.100000       0.001938
     1493.200000       0.001923
     1493.300000       0.001908
     1493.400000       0.001893
     1493.500000       0.001878
     1493.600000       0.001862
     1493.700000       0.001847
     1493.800000       0.001831
     1493.900000       0.001816
     1494.000000       0.001800
     1494.100000       0.001785
     1494.200000       0.001769
     1494.300000       0.001753
     1494.400000       0.001738
     1494.500000       0.001722
     1494.600000       0.001707
     1494.700000       0.001691
     1494.800000       0.001676
     1494.900000       0.001661
     1495.000000       0.001646
     1495.100000       0.001631
     1495.200000       0.001617
     1495.300000       0.001602
     1495.400000       0.001588
     1495.500000       0.001574
     1495.600000       0.001561
     1495.700000       0.001548
     1495.800000       0.001535
     1495.900000       0.001522
     1496.000000       0.001510
     1496.100000       0.001497
     1496.200000       0.001486
     1496.300000       0.001474
     1496.400000       0.001463
     1496.500000       0.001452
     1496.600000       0.001441
     1496.700000       0.001431
     1496.800000       0.001421
     1496.900000       0.001411
     1497.000000       0.001401
     1497.100000       0.001392
     1497.200000       0.001384
     1497.300000       0.001376
     1497.400000       0.001368
     1497.500000       0.001361
     1497.600000       0.001354
     1497.700000       0.001348
     1497.800000       0.001342
     1497.900000       0.001337
     1498.000000       0.001334
     1498.100000       0.001334
