41,   41, MVIRI VIS channel from srf_MET5_1996123_1996124_1801-Release_S10EL_10.dat
Number of data points:
806
Wavenumber (cm-1)   Filter response
     8350.730700       0.000000
     8357.710000       0.000000
     8364.701000       0.000000
     8371.703600       0.000002
     8378.718100       0.000004
     8385.744200       0.000009
     8392.782200       0.000016
     8399.832000       0.000027
     8406.893700       0.000041
     8413.967200       0.000059
     8421.052600       0.000082
     8428.150000       0.000110
     8435.259400       0.000143
     8442.380800       0.000182
     8449.514200       0.000228
     8456.659600       0.000281
     8463.817200       0.000340
     8470.986900       0.000408
     8478.168700       0.000483
     8485.362700       0.000566
     8492.569000       0.000658
     8499.787500       0.000759
     8507.018300       0.000869
     8514.261400       0.000989
     8521.516800       0.001119
     8528.784600       0.001258
     8536.064900       0.001408
     8543.357500       0.001569
     8550.662700       0.001741
     8557.980300       0.001924
     8565.310500       0.002118
     8572.653200       0.002324
     8580.008600       0.002542
     8587.376600       0.002772
     8594.757200       0.003014
     8602.150500       0.003269
     8609.556600       0.003537
     8616.975400       0.003817
     8624.407100       0.004111
     8631.851500       0.004418
     8639.308900       0.004738
     8646.779100       0.005073
     8654.262200       0.005421
     8661.758300       0.005782
     8669.267400       0.006159
     8676.789600       0.006549
     8684.324800       0.006954
     8691.873100       0.007374
     8699.434500       0.007808
     8707.009100       0.008257
     8714.596900       0.008722
     8722.198000       0.009201
     8729.812300       0.009696
     8737.439900       0.010206
     8745.080900       0.010732
     8752.735200       0.011274
     8760.403000       0.011832
     8768.084200       0.012405
     8775.778900       0.012995
     8783.487000       0.013601
     8791.208800       0.014223
     8798.944100       0.014862
     8806.693100       0.015517
     8814.455700       0.016189
     8822.232000       0.016878
     8830.022100       0.017584
     8837.825900       0.018307
     8845.643500       0.019047
     8853.475000       0.019804
     8861.320300       0.020579
     8869.179600       0.021371
     8877.052800       0.022180
     8884.940000       0.023008
     8892.841300       0.023853
     8900.756600       0.024716
     8908.686000       0.025598
     8916.629500       0.026497
     8924.587200       0.027415
     8932.559200       0.028351
     8940.545400       0.029305
     8948.545900       0.030278
     8956.560700       0.031269
     8964.589900       0.032280
     8972.633500       0.033309
     8980.691500       0.034357
     8988.764000       0.035424
     8996.851100       0.036511
     9004.952700       0.037616
     9013.068900       0.038741
     9021.199800       0.039886
     9029.345400       0.041050
     9037.505600       0.042234
     9045.680700       0.043437
     9053.870500       0.044660
     9062.075200       0.045904
     9070.294800       0.047167
     9078.529300       0.048451
     9086.778700       0.049754
     9095.043200       0.051078
     9103.322700       0.052423
     9111.617300       0.053788
     9119.927000       0.055174
     9128.251900       0.056580
     9136.592100       0.058008
     9144.947400       0.059456
     9153.318100       0.060925
     9161.704100       0.062415
     9170.105500       0.063927
     9178.522300       0.065460
     9186.954500       0.067014
     9195.402300       0.068590
     9203.865600       0.070187
     9212.344500       0.071806
     9220.839100       0.073446
     9229.349300       0.075108
     9237.875300       0.076793
     9246.417000       0.078499
     9254.974500       0.080227
     9263.547900       0.081977
     9272.137200       0.083750
     9280.742500       0.085545
     9289.363700       0.087362
     9298.000900       0.089201
     9306.654300       0.091063
     9315.323700       0.092948
     9324.009300       0.094855
     9332.711200       0.096785
     9341.429200       0.098738
     9350.163600       0.100713
     9358.914400       0.102711
     9367.681500       0.104732
     9376.465100       0.106777
     9385.265100       0.108844
     9394.081700       0.110934
     9402.914900       0.113048
     9411.764700       0.115184
     9420.631200       0.117344
     9429.514400       0.119527
     9438.414300       0.121734
     9447.331100       0.123963
     9456.264800       0.126217
     9465.215300       0.128493
     9474.182900       0.130793
     9483.167400       0.133117
     9492.169000       0.135464
     9501.187600       0.137834
     9510.223500       0.140228
     9519.276500       0.142646
     9528.346800       0.145087
     9537.434400       0.147552
     9546.539400       0.150040
     9555.661700       0.152552
     9564.801500       0.155087
     9573.958800       0.157646
     9583.133700       0.160229
     9592.326100       0.162835
     9601.536200       0.165465
     9610.764100       0.168118
     9620.009600       0.170794
     9629.273000       0.173495
     9638.554200       0.176218
     9647.853400       0.178965
     9657.170400       0.181735
     9666.505600       0.184529
     9675.858700       0.187347
     9685.230000       0.190187
     9694.619500       0.193050
     9704.027200       0.195937
     9713.453100       0.198847
     9722.897400       0.201780
     9732.360100       0.204736
     9741.841200       0.207714
     9751.340800       0.210716
     9760.859000       0.213740
     9770.395700       0.216788
     9779.951100       0.219857
     9789.525200       0.222950
     9799.118100       0.226064
     9808.729800       0.229201
     9818.360300       0.232360
     9828.009800       0.235542
     9837.678300       0.238745
     9847.365800       0.241970
     9857.072400       0.245217
     9866.798200       0.248486
     9876.543200       0.251776
     9886.307500       0.255088
     9896.091000       0.258421
     9905.894000       0.261775
     9915.716400       0.265150
     9925.558300       0.268546
     9935.419800       0.271963
     9945.300800       0.275401
     9955.201600       0.278858
     9965.122100       0.282336
     9975.062300       0.285834
     9985.022500       0.289352
     9995.002500       0.292890
    10005.002500       0.296447
    10015.022500       0.300023
    10025.062700       0.303619
    10035.122900       0.307234
    10045.203400       0.310867
    10055.304200       0.314520
    10065.425300       0.318190
    10075.566800       0.321879
    10085.728700       0.325585
    10095.911200       0.329310
    10106.114200       0.333052
    10116.337900       0.336811
    10126.582300       0.340587
    10136.847400       0.344380
    10147.133400       0.348190
    10157.440300       0.352017
    10167.768200       0.355859
    10178.117000       0.359717
    10188.487000       0.363591
    10198.878100       0.367480
    10209.290500       0.371384
    10219.724100       0.375303
    10230.179000       0.379237
    10240.655400       0.383185
    10251.153300       0.387147
    10261.672700       0.391123
    10272.213700       0.395112
    10282.776300       0.399115
    10293.360800       0.403130
    10303.967000       0.407158
    10314.595200       0.411198
    10325.245200       0.415250
    10335.917300       0.419314
    10346.611500       0.423390
    10357.327800       0.427476
    10368.066400       0.431573
    10378.827200       0.435681
    10389.610400       0.439799
    10400.416000       0.443926
    10411.244100       0.448063
    10422.094800       0.452210
    10432.968200       0.456365
    10443.864200       0.460528
    10454.783100       0.464700
    10465.724800       0.468879
    10476.689400       0.473066
    10487.677000       0.477260
    10498.687700       0.481461
    10509.721500       0.485668
    10520.778500       0.489882
    10531.858900       0.494101
    10542.962600       0.498325
    10554.089700       0.502554
    10565.240400       0.506788
    10576.414600       0.511026
    10587.612500       0.515268
    10598.834100       0.519514
    10610.079600       0.523763
    10621.348900       0.528014
    10632.642200       0.532268
    10643.959600       0.536524
    10655.301000       0.540782
    10666.666700       0.545040
    10678.056600       0.549300
    10689.470900       0.553560
    10700.909600       0.557820
    10712.372800       0.562080
    10723.860600       0.566339
    10735.373100       0.570597
    10746.910300       0.574854
    10758.472300       0.579109
    10770.059200       0.583361
    10781.671200       0.587611
    10793.308100       0.591858
    10804.970300       0.596101
    10816.657700       0.600341
    10828.370300       0.604576
    10840.108400       0.608807
    10851.871900       0.613032
    10863.661100       0.617253
    10875.475800       0.621467
    10887.316300       0.625675
    10899.182600       0.629876
    10911.074700       0.634071
    10922.992900       0.638258
    10934.937100       0.642437
    10946.907500       0.646608
    10958.904100       0.650770
    10970.927000       0.654923
    10982.976400       0.659067
    10995.052200       0.663201
    11007.154700       0.667324
    11019.283700       0.671437
    11031.439600       0.675539
    11043.622300       0.679630
    11055.832000       0.683708
    11068.068600       0.687775
    11080.332400       0.691829
    11092.623400       0.695869
    11104.941700       0.699897
    11117.287400       0.703910
    11129.660500       0.707909
    11142.061300       0.711894
    11154.489700       0.715864
    11166.945800       0.719818
    11179.429800       0.723756
    11191.941800       0.727679
    11204.481800       0.731585
    11217.049900       0.735474
    11229.646300       0.739345
    11242.270900       0.743199
    11254.924000       0.747036
    11267.605600       0.750853
    11280.315800       0.754652
    11293.054800       0.758432
    11305.822500       0.762192
    11318.619100       0.765932
    11331.444800       0.769652
    11344.299500       0.773352
    11357.183400       0.777031
    11370.096600       0.780688
    11383.039300       0.784324
    11396.011400       0.787937
    11409.013100       0.791529
    11422.044500       0.795097
    11435.105800       0.798643
    11448.196900       0.802166
    11461.318100       0.805664
    11474.469300       0.809139
    11487.650800       0.812589
    11500.862600       0.816015
    11514.104800       0.819416
    11527.377500       0.822791
    11540.680900       0.826141
    11554.015000       0.829466
    11567.380000       0.832763
    11580.775900       0.836035
    11594.202900       0.839279
    11607.661100       0.842497
    11621.150500       0.845687
    11634.671300       0.848850
    11648.223600       0.851984
    11661.807600       0.855091
    11675.423200       0.858168
    11689.070700       0.861218
    11702.750100       0.864238
    11716.461600       0.867229
    11730.205300       0.870191
    11743.981200       0.873122
    11757.789500       0.876024
    11771.630400       0.878896
    11785.503800       0.881737
    11799.410000       0.884547
    11813.349100       0.887327
    11827.321100       0.890075
    11841.326200       0.892792
    11855.364600       0.895478
    11869.436200       0.898132
    11883.541300       0.900754
    11897.680000       0.903343
    11911.852300       0.905901
    11926.058400       0.908425
    11940.298500       0.910918
    11954.572600       0.913377
    11968.880900       0.915803
    11983.223500       0.918196
    11997.600500       0.920556
    12012.012000       0.922883
    12026.458200       0.925175
    12040.939200       0.927434
    12055.455100       0.929659
    12070.006000       0.931850
    12084.592100       0.934007
    12099.213600       0.936130
    12113.870400       0.938218
    12128.562800       0.940271
    12143.290800       0.942291
    12158.054700       0.944275
    12172.854500       0.946225
    12187.690400       0.948139
    12202.562500       0.950019
    12217.471000       0.951864
    12232.415900       0.953674
    12247.397400       0.955449
    12262.415700       0.957189
    12277.470800       0.958893
    12292.563000       0.960562
    12307.692300       0.962196
    12322.858900       0.963795
    12338.062900       0.965358
    12353.304500       0.966886
    12368.583800       0.968378
    12383.900900       0.969836
    12399.256000       0.971257
    12414.649300       0.972644
    12430.080800       0.973995
    12445.550700       0.975311
    12461.059200       0.976592
    12476.606400       0.977837
    12492.192400       0.979047
    12507.817400       0.980222
    12523.481500       0.981362
    12539.185000       0.982467
    12554.927800       0.983537
    12570.710200       0.984572
    12586.532400       0.985572
    12602.394500       0.986538
    12618.296500       0.987468
    12634.238800       0.988364
    12650.221400       0.989226
    12666.244500       0.990053
    12682.308200       0.990846
    12698.412700       0.991605
    12714.558200       0.992330
    12730.744700       0.993021
    12746.972600       0.993679
    12763.241900       0.994302
    12779.552700       0.994893
    12795.905300       0.995450
    12812.299800       0.995974
    12828.736400       0.996464
    12845.215200       0.996922
    12861.736300       0.997348
    12878.300100       0.997741
    12894.906500       0.998102
    12911.555800       0.998430
    12928.248200       0.998727
    12944.983800       0.998992
    12961.762800       0.999226
    12978.585300       0.999428
    12995.451600       0.999600
    13012.361700       0.999740
    13029.316000       0.999851
    13046.314400       0.999930
    13063.357300       0.999980
    13080.444700       1.000000
    13097.576900       0.999990
    13114.754100       0.999951
    13131.976400       0.999883
    13149.243900       0.999786
    13166.556900       0.999661
    13183.915600       0.999507
    13201.320100       0.999326
    13218.770700       0.999117
    13236.267400       0.998880
    13253.810500       0.998616
    13271.400100       0.998326
    13289.036500       0.998009
    13306.719900       0.997666
    13324.450400       0.997297
    13342.228200       0.996902
    13360.053400       0.996483
    13377.926400       0.996038
    13395.847300       0.995569
    13413.816200       0.995075
    13431.833400       0.994558
    13449.899100       0.994017
    13468.013500       0.993453
    13486.176700       0.992866
    13504.388900       0.992257
    13522.650400       0.991625
    13540.961400       0.990972
    13559.322000       0.990297
    13577.732500       0.989601
    13596.193100       0.988885
    13614.703900       0.988148
    13633.265200       0.987391
    13651.877100       0.986615
    13670.540000       0.985819
    13689.253900       0.985005
    13708.019200       0.984172
    13726.836000       0.983322
    13745.704500       0.982453
    13764.624900       0.981568
    13783.597500       0.980665
    13802.622500       0.979746
    13821.700100       0.978811
    13840.830400       0.977861
    13860.013900       0.976895
    13879.250500       0.975914
    13898.540700       0.974919
    13917.884500       0.973910
    13937.282200       0.972887
    13956.734100       0.971851
    13976.240400       0.970802
    13995.801300       0.969741
    14015.417000       0.968668
    14035.087700       0.967584
    14054.813800       0.966488
    14074.595400       0.965381
    14094.432700       0.964265
    14114.326000       0.963138
    14134.275600       0.962002
    14154.281700       0.960857
    14174.344400       0.959703
    14194.464200       0.958541
    14214.641100       0.957372
    14234.875400       0.956195
    14255.167500       0.955011
    14275.517500       0.953820
    14295.925700       0.952623
    14316.392300       0.951421
    14336.917600       0.950213
    14357.501800       0.949001
    14378.145200       0.947784
    14398.848100       0.946563
    14419.610700       0.945339
    14440.433200       0.944111
    14461.316000       0.942880
    14482.259200       0.941647
    14503.263200       0.940412
    14524.328200       0.939176
    14545.454500       0.937938
    14566.642400       0.936700
    14587.892000       0.935461
    14609.203800       0.934222
    14630.577900       0.932984
    14652.014700       0.931746
    14673.514300       0.930510
    14695.077100       0.929275
    14716.703500       0.928042
    14738.393500       0.926811
    14760.147600       0.925583
    14781.966000       0.924359
    14803.849000       0.923137
    14825.796900       0.921920
    14847.809900       0.920706
    14869.888500       0.919497
    14892.032800       0.918293
    14914.243100       0.917095
    14936.519800       0.915902
    14958.863100       0.914714
    14981.273400       0.913534
    15003.750900       0.912359
    15026.296000       0.911192
    15048.909000       0.910032
    15071.590100       0.908879
    15094.339600       0.907734
    15117.158000       0.906598
    15140.045400       0.905470
    15163.002300       0.904351
    15186.028900       0.903241
    15209.125500       0.902140
    15232.292500       0.901049
    15255.530100       0.899968
    15278.838800       0.898897
    15302.218800       0.897837
    15325.670500       0.896787
    15349.194200       0.895748
    15372.790200       0.894721
    15396.458800       0.893705
    15420.200500       0.892701
    15444.015400       0.891708
    15467.904100       0.890728
    15491.866800       0.889760
    15515.903800       0.888805
    15540.015500       0.887863
    15564.202300       0.886933
    15588.464500       0.886017
    15612.802500       0.885114
    15637.216600       0.884225
    15661.707100       0.883349
    15686.274500       0.882487
    15710.919100       0.881639
    15735.641200       0.880805
    15760.441300       0.879985
    15785.319700       0.879179
    15810.276700       0.878389
    15835.312700       0.877612
    15860.428200       0.876851
    15885.623500       0.876104
    15910.899000       0.875372
    15936.255000       0.874655
    15961.691900       0.873952
    15987.210200       0.873265
    16012.810200       0.872593
    16038.492400       0.871936
    16064.257000       0.871295
    16090.104600       0.870668
    16116.035500       0.870057
    16142.050000       0.869460
    16168.148700       0.868879
    16194.332000       0.868313
    16220.600200       0.867763
    16246.953700       0.867227
    16273.393000       0.866706
    16299.918500       0.866201
    16326.530600       0.865710
    16353.229800       0.865234
    16380.016400       0.864773
    16406.890900       0.864326
    16433.853700       0.863894
    16460.905300       0.863477
    16488.046200       0.863074
    16515.276600       0.862685
    16542.597200       0.862310
    16570.008300       0.861949
    16597.510400       0.861601
    16625.103900       0.861267
    16652.789300       0.860947
    16680.567100       0.860640
    16708.437800       0.860345
    16736.401700       0.860064
    16764.459300       0.859794
    16792.611300       0.859537
    16820.857900       0.859293
    16849.199700       0.859059
    16877.637100       0.858838
    16906.170800       0.858627
    16934.801000       0.858428
    16963.528400       0.858239
    16992.353400       0.858060
    17021.276600       0.857891
    17050.298400       0.857732
    17079.419300       0.857582
    17108.639900       0.857441
    17137.960600       0.857309
    17167.382000       0.857185
    17196.904600       0.857068
    17226.528900       0.856959
    17256.255400       0.856857
    17286.084700       0.856762
    17316.017300       0.856673
    17346.053800       0.856589
    17376.194600       0.856511
    17406.440400       0.856437
    17436.791600       0.856368
    17467.248900       0.856303
    17497.812800       0.856240
    17528.483800       0.856181
    17559.262500       0.856124
    17590.149500       0.856069
    17621.145400       0.856015
    17652.250700       0.855962
    17683.466000       0.855909
    17714.791900       0.855855
    17746.228900       0.855801
    17777.777800       0.855745
    17809.439000       0.855687
    17841.213200       0.855626
    17873.101000       0.855561
    17905.103000       0.855493
    17937.219700       0.855420
    17969.451900       0.855342
    18001.800200       0.855258
    18034.265100       0.855167
    18066.847300       0.855069
    18099.547500       0.854963
    18132.366300       0.854848
    18165.304300       0.854724
    18198.362100       0.854590
    18231.540600       0.854445
    18264.840200       0.854289
    18298.261700       0.854120
    18331.805700       0.853939
    18365.472900       0.853743
    18399.264000       0.853534
    18433.179700       0.853309
    18467.220700       0.853068
    18501.387600       0.852810
    18535.681200       0.852535
    18570.102100       0.852241
    18604.651200       0.851928
    18639.329000       0.851595
    18674.136300       0.851241
    18709.073900       0.850866
    18744.142500       0.850468
    18779.342700       0.850047
    18814.675400       0.849602
    18850.141400       0.849132
    18885.741300       0.848636
    18921.475900       0.848113
    18957.346000       0.847563
    18993.352300       0.846984
    19029.495700       0.846376
    19065.776900       0.845737
    19102.196800       0.845068
    19138.756000       0.844366
    19175.455400       0.843632
    19212.295900       0.842864
    19249.278200       0.842061
    19286.403100       0.841223
    19323.671500       0.840348
    19361.084200       0.839435
    19398.642100       0.838485
    19436.346000       0.837495
    19474.196700       0.836465
    19512.195100       0.835394
    19550.342100       0.834280
    19588.638600       0.833124
    19627.085400       0.831924
    19665.683400       0.830679
    19704.433500       0.829388
    19743.336600       0.828051
    19782.393700       0.826666
    19821.605600       0.825232
    19860.973200       0.823749
    19900.497500       0.822216
    19940.179500       0.820631
    19980.020000       0.818994
    20020.020000       0.817304
    20060.180500       0.815560
    20100.502500       0.813760
    20140.986900       0.811905
    20181.634700       0.809992
    20222.446900       0.808022
    20263.424500       0.805994
    20304.568500       0.803905
    20345.880000       0.801756
    20387.359800       0.799546
    20429.009200       0.797273
    20470.829100       0.794937
    20512.820500       0.792537
    20554.984600       0.790072
    20597.322300       0.787541
    20639.834900       0.784943
    20682.523300       0.782278
    20725.388600       0.779544
    20768.432000       0.776741
    20811.654500       0.773868
    20855.057400       0.770924
    20898.641600       0.767908
    20942.408400       0.764819
    20986.358900       0.761658
    21030.494200       0.758421
    21074.815600       0.755111
    21119.324200       0.751724
    21164.021200       0.748261
    21208.907700       0.744720
    21253.985100       0.741102
    21299.254500       0.737405
    21344.717200       0.733628
    21390.374300       0.729771
    21436.227200       0.725834
    21482.277100       0.721815
    21528.525300       0.717714
    21574.973000       0.713531
    21621.621600       0.709264
    21668.472400       0.704912
    21715.526600       0.700477
    21762.785600       0.695956
    21810.250800       0.691350
    21857.923500       0.686657
    21905.805000       0.681878
    21953.896800       0.677011
    22002.200200       0.672057
    22050.716600       0.667015
    22099.447500       0.661883
    22148.394200       0.656663
    22197.558300       0.651354
    22246.941000       0.645954
    22296.544000       0.640465
    22346.368700       0.634885
    22396.416600       0.629214
    22446.689100       0.623452
    22497.187900       0.617599
    22547.914300       0.611654
    22598.870100       0.605617
    22650.056600       0.599489
    22701.475600       0.593268
    22753.128600       0.586955
    22805.017100       0.580550
    22857.142900       0.574053
    22909.507400       0.567463
    22962.112500       0.560780
    23014.959700       0.554005
    23068.050700       0.547138
    23121.387300       0.540178
    23174.971000       0.533126
    23228.803700       0.525982
    23282.887100       0.518747
    23337.222900       0.511419
    23391.812900       0.504000
    23446.658900       0.496490
    23501.762600       0.488890
    23557.126000       0.481198
    23612.750900       0.473417
    23668.639100       0.465546
    23724.792400       0.457585
    23781.212800       0.449536
    23837.902300       0.441399
    23894.862600       0.433174
    23952.095800       0.424863
    24009.603800       0.416465
    24067.388700       0.407981
    24125.452400       0.399412
    24183.796900       0.390759
    24242.424200       0.382023
    24301.336600       0.373205
    24360.535900       0.364305
    24420.024400       0.355325
    24479.804200       0.346264
    24539.877300       0.337126
    24600.246000       0.327910
    24660.912500       0.318618
    24721.878900       0.309251
    24783.147500       0.299810
    24844.720500       0.290296
    24906.600200       0.280712
    24968.789000       0.271057
    25031.289100       0.261335
    25094.102900       0.251545
    25157.232700       0.241690
    25220.681000       0.231771
    25284.450100       0.221790
    25348.542500       0.211749
    25412.960600       0.201649
    25477.707000       0.191493
