          12  , Jan 12th 2012 http://fy3.satellite.cma.gov.cn/ArssEn/Download/FY3A_calibration_info_params.rar
Number of data points:
623
Wavenumber (cm-1)   Filter response
     1257.545000       0.000159
     1257.862000       0.000510
     1258.178000       0.000969
     1258.495000       0.001498
     1258.812000       0.002034
     1259.129000       0.002480
     1259.446000       0.002774
     1259.763000       0.002886
     1260.081000       0.002934
     1260.398000       0.002952
     1260.716000       0.002990
     1261.034000       0.003021
     1261.352000       0.003015
     1261.670000       0.002939
     1261.989000       0.002814
     1262.307000       0.002675
     1262.626000       0.002545
     1262.945000       0.002352
     1263.264000       0.002115
     1263.583000       0.001812
     1263.903000       0.001537
     1264.223000       0.001366
     1264.542000       0.001407
     1264.862000       0.001641
     1265.182000       0.002013
     1265.502000       0.002431
     1265.823000       0.002836
     1266.143000       0.003220
     1266.464000       0.003533
     1266.785000       0.003806
     1267.106000       0.004033
     1267.427000       0.004228
     1267.749000       0.004425
     1268.070000       0.004657
     1268.392000       0.004924
     1268.714000       0.005204
     1269.036000       0.005407
     1269.358000       0.005442
     1269.680000       0.005201
     1270.003000       0.004716
     1270.325000       0.004089
     1270.648000       0.003538
     1270.971000       0.003221
     1271.294000       0.003236
     1271.618000       0.003505
     1271.941000       0.003889
     1272.265000       0.004224
     1272.589000       0.004448
     1272.912000       0.004555
     1273.237000       0.004637
     1273.561000       0.004723
     1273.885000       0.004857
     1274.210000       0.005027
     1274.535000       0.005242
     1274.860000       0.005459
     1275.185000       0.005638
     1275.510000       0.005718
     1275.836000       0.005651
     1276.161000       0.005454
     1276.487000       0.005197
     1276.813000       0.004974
     1277.139000       0.004833
     1277.465000       0.004732
     1277.792000       0.004631
     1278.119000       0.004466
     1278.445000       0.004257
     1278.772000       0.004043
     1279.099000       0.003849
     1279.427000       0.003694
     1279.754000       0.003627
     1280.082000       0.003701
     1280.410000       0.003979
     1280.738000       0.004517
     1281.066000       0.005200
     1281.394000       0.005865
     1281.723000       0.006303
     1282.051000       0.006467
     1282.380000       0.006410
     1282.709000       0.006239
     1283.038000       0.006081
     1283.368000       0.005985
     1283.697000       0.005968
     1284.027000       0.006048
     1284.357000       0.006249
     1284.687000       0.006528
     1285.017000       0.006793
     1285.347000       0.006888
     1285.678000       0.006774
     1286.008000       0.006526
     1286.339000       0.006293
     1286.670000       0.006204
     1287.001000       0.006271
     1287.333000       0.006379
     1287.664000       0.006388
     1287.996000       0.006234
     1288.328000       0.005982
     1288.660000       0.005801
     1288.992000       0.005808
     1289.324000       0.006073
     1289.657000       0.006534
     1289.990000       0.007102
     1290.323000       0.007637
     1290.656000       0.008051
     1290.989000       0.008313
     1291.322000       0.008445
     1291.656000       0.008488
     1291.990000       0.008489
     1292.324000       0.008483
     1292.658000       0.008454
     1292.992000       0.008448
     1293.326000       0.008485
     1293.661000       0.008558
     1293.996000       0.008655
     1294.331000       0.008753
     1294.666000       0.008862
     1295.001000       0.008981
     1295.337000       0.009117
     1295.672000       0.009275
     1296.008000       0.009404
     1296.344000       0.009530
     1296.681000       0.009689
     1297.017000       0.009924
     1297.353000       0.010222
     1297.690000       0.010503
     1298.027000       0.010702
     1298.364000       0.010812
     1298.701000       0.010921
     1299.039000       0.010572
     1299.376000       0.011023
     1299.714000       0.011608
     1300.052000       0.012180
     1300.390000       0.012618
     1300.728000       0.012780
     1301.067000       0.012666
     1301.406000       0.012346
     1301.744000       0.011971
     1302.083000       0.011759
     1302.422000       0.011910
     1302.762000       0.012417
     1303.101000       0.013267
     1303.441000       0.014181
     1303.781000       0.014850
     1304.121000       0.015051
     1304.461000       0.014860
     1304.802000       0.014463
     1305.142000       0.014120
     1305.483000       0.014010
     1305.824000       0.014304
     1306.165000       0.014762
     1306.506000       0.015399
     1306.848000       0.016112
     1307.190000       0.016770
     1307.531000       0.017262
     1307.873000       0.017569
     1308.216000       0.017770
     1308.558000       0.017987
     1308.901000       0.018325
     1309.243000       0.018892
     1309.586000       0.019388
     1309.929000       0.019869
     1310.273000       0.020323
     1310.616000       0.020762
     1310.960000       0.021184
     1311.303000       0.021546
     1311.647000       0.021844
     1311.992000       0.022141
     1312.336000       0.022518
     1312.681000       0.023238
     1313.025000       0.023917
     1313.370000       0.024671
     1313.715000       0.025424
     1314.060000       0.026189
     1314.406000       0.027032
     1314.751000       0.027992
     1315.097000       0.029015
     1315.443000       0.030027
     1315.790000       0.030965
     1316.136000       0.032235
     1316.482000       0.033106
     1316.829000       0.033904
     1317.176000       0.034580
     1317.523000       0.035107
     1317.870000       0.035613
     1318.218000       0.036246
     1318.565000       0.037146
     1318.913000       0.038283
     1319.261000       0.039512
     1319.609000       0.041084
     1319.958000       0.042055
     1320.306000       0.042945
     1320.655000       0.043836
     1321.004000       0.044819
     1321.353000       0.046005
     1321.702000       0.047482
     1322.052000       0.049284
     1322.401000       0.051341
     1322.751000       0.053478
     1323.101000       0.056061
     1323.452000       0.057815
     1323.802000       0.059353
     1324.153000       0.060828
     1324.503000       0.062433
     1324.854000       0.064297
     1325.205000       0.066421
     1325.557000       0.068796
     1325.908000       0.071366
     1326.260000       0.074075
     1326.612000       0.077590
     1326.964000       0.080482
     1327.316000       0.083243
     1327.669000       0.085810
     1328.021000       0.088204
     1328.374000       0.090586
     1328.727000       0.093269
     1329.080000       0.096410
     1329.434000       0.100028
     1329.787000       0.104019
     1330.141000       0.109014
     1330.495000       0.113612
     1330.849000       0.118610
     1331.203000       0.124099
     1331.558000       0.129922
     1331.913000       0.135839
     1332.267000       0.141765
     1332.623000       0.147770
     1332.978000       0.153901
     1333.333000       0.160215
     1333.689000       0.167652
     1334.045000       0.174424
     1334.401000       0.181662
     1334.757000       0.189622
     1335.114000       0.198639
     1335.470000       0.208403
     1335.827000       0.218766
     1336.184000       0.229693
     1336.541000       0.241127
     1336.898000       0.252861
     1337.256000       0.265377
     1337.614000       0.277854
     1337.972000       0.291057
     1338.330000       0.305442
     1338.688000       0.320925
     1339.047000       0.337067
     1339.405000       0.353867
     1339.764000       0.371173
     1340.123000       0.389073
     1340.483000       0.407504
     1340.842000       0.429776
     1341.202000       0.448117
     1341.562000       0.466211
     1341.922000       0.484456
     1342.282000       0.503422
     1342.642000       0.523319
     1343.003000       0.544118
     1343.364000       0.565603
     1343.725000       0.587369
     1344.086000       0.609269
     1344.447000       0.632916
     1344.809000       0.655788
     1345.171000       0.678566
     1345.533000       0.701004
     1345.895000       0.723103
     1346.257000       0.745025
     1346.620000       0.766978
     1346.983000       0.788473
     1347.346000       0.808974
     1347.709000       0.828289
     1348.072000       0.843991
     1348.436000       0.862136
     1348.800000       0.879608
     1349.163000       0.895997
     1349.528000       0.911091
     1349.892000       0.924978
     1350.256000       0.937703
     1350.621000       0.948824
     1350.986000       0.958662
     1351.351000       0.967057
     1351.717000       0.973226
     1352.082000       0.979063
     1352.448000       0.984052
     1352.814000       0.987809
     1353.180000       0.990038
     1353.546000       0.990995
     1353.913000       0.991248
     1354.280000       0.991881
     1354.646000       0.992370
     1355.014000       0.992098
     1355.381000       0.991708
     1355.748000       0.989889
     1356.116000       0.988086
     1356.484000       0.986273
     1356.852000       0.984206
     1357.220000       0.981776
     1357.589000       0.979220
     1357.958000       0.977421
     1358.327000       0.977854
     1358.696000       0.978106
     1359.065000       0.978009
     1359.434000       0.977811
     1359.804000       0.977857
     1360.174000       0.978489
     1360.544000       0.979508
     1360.915000       0.980635
     1361.285000       0.981762
     1361.656000       0.983013
     1362.027000       0.984351
     1362.398000       0.985877
     1362.769000       0.989342
     1363.141000       0.990352
     1363.512000       0.991223
     1363.884000       0.992186
     1364.256000       0.993361
     1364.629000       0.994746
     1365.001000       0.996376
     1365.374000       0.998268
     1365.747000       0.999653
     1366.120000       1.000000
     1366.494000       0.996909
     1366.867000       0.997550
     1367.241000       0.997969
     1367.615000       0.998263
     1367.989000       0.998510
     1368.363000       0.998620
     1368.738000       0.998506
     1369.113000       0.997977
     1369.488000       0.997197
     1369.863000       0.997906
     1370.238000       0.945064
     1370.614000       0.951291
     1370.990000       0.956698
     1371.366000       0.961035
     1371.742000       0.964624
     1372.119000       0.967950
     1372.495000       0.971304
     1372.872000       0.974173
     1373.249000       0.975574
     1373.626000       0.973435
     1374.004000       0.973724
     1374.381000       0.960309
     1374.759000       0.945873
     1375.138000       0.930017
     1375.516000       0.912813
     1375.894000       0.894973
     1376.273000       0.877223
     1376.652000       0.859540
     1377.031000       0.841353
     1377.410000       0.820132
     1377.790000       0.804464
     1378.170000       0.781077
     1378.550000       0.757862
     1378.930000       0.734580
     1379.310000       0.710890
     1379.691000       0.687055
     1380.072000       0.663518
     1380.453000       0.640616
     1380.834000       0.618124
     1381.215000       0.596864
     1381.597000       0.580120
     1381.979000       0.560492
     1382.361000       0.541099
     1382.743000       0.521647
     1383.126000       0.502090
     1383.509000       0.482815
     1383.891000       0.464381
     1384.275000       0.446974
     1384.658000       0.430315
     1385.042000       0.414343
     1385.425000       0.402113
     1385.809000       0.387824
     1386.193000       0.374407
     1386.578000       0.361204
     1386.963000       0.347096
     1387.347000       0.331788
     1387.732000       0.316364
     1388.118000       0.302377
     1388.503000       0.290460
     1388.889000       0.279794
     1389.275000       0.272399
     1389.661000       0.262087
     1390.047000       0.251835
     1390.434000       0.241609
     1390.821000       0.231286
     1391.208000       0.220961
     1391.595000       0.210951
     1391.982000       0.201562
     1392.370000       0.193047
     1392.758000       0.185739
     1393.146000       0.181594
     1393.534000       0.176159
     1393.922000       0.170667
     1394.311000       0.164528
     1394.700000       0.157574
     1395.089000       0.150583
     1395.479000       0.144450
     1395.868000       0.139385
     1396.258000       0.135087
     1396.648000       0.130871
     1397.038000       0.127632
     1397.429000       0.123240
     1397.819000       0.118873
     1398.210000       0.114575
     1398.601000       0.110205
     1398.993000       0.105755
     1399.384000       0.101458
     1399.776000       0.097683
     1400.168000       0.094613
     1400.560000       0.091723
     1400.953000       0.089234
     1401.345000       0.085989
     1401.738000       0.082511
     1402.131000       0.079080
     1402.525000       0.075970
     1402.918000       0.073252
     1403.312000       0.070838
     1403.706000       0.068628
     1404.100000       0.066535
     1404.494000       0.064616
     1404.889000       0.062994
     1405.284000       0.060699
     1405.679000       0.058325
     1406.074000       0.056089
     1406.470000       0.054076
     1406.866000       0.052252
     1407.261000       0.050604
     1407.658000       0.049196
     1408.054000       0.048049
     1408.451000       0.046972
     1408.848000       0.044606
     1409.245000       0.043265
     1409.642000       0.041942
     1410.039000       0.040957
     1410.437000       0.040349
     1410.835000       0.039806
     1411.233000       0.039052
     1411.632000       0.038136
     1412.031000       0.037260
     1412.429000       0.036473
     1412.828000       0.035700
     1413.228000       0.034525
     1413.627000       0.033574
     1414.027000       0.033072
     1414.427000       0.032855
     1414.827000       0.032511
     1415.228000       0.031842
     1415.629000       0.030932
     1416.030000       0.030060
     1416.431000       0.029153
     1416.832000       0.028395
     1417.234000       0.027273
     1417.635000       0.026457
     1418.037000       0.026234
     1418.440000       0.026597
     1418.842000       0.027126
     1419.245000       0.027132
     1419.648000       0.026253
     1420.051000       0.024759
     1420.455000       0.023449
     1420.858000       0.022680
     1421.262000       0.021930
     1421.666000       0.021288
     1422.071000       0.020745
     1422.475000       0.020348
     1422.880000       0.020112
     1423.285000       0.019973
     1423.690000       0.019766
     1424.096000       0.019418
     1424.501000       0.018903
     1424.907000       0.018350
     1425.314000       0.017566
     1425.720000       0.016659
     1426.127000       0.015698
     1426.533000       0.014854
     1426.941000       0.014312
     1427.348000       0.014147
     1427.755000       0.014244
     1428.163000       0.014325
     1428.571000       0.014184
     1428.980000       0.013887
     1429.388000       0.013564
     1429.797000       0.013544
     1430.206000       0.013900
     1430.615000       0.014395
     1431.025000       0.014657
     1431.434000       0.014564
     1431.844000       0.014159
     1432.254000       0.013574
     1432.665000       0.012911
     1433.075000       0.012229
     1433.486000       0.011442
     1433.897000       0.010698
     1434.309000       0.010172
     1434.720000       0.009979
     1435.132000       0.010121
     1435.544000       0.010505
     1435.956000       0.011001
     1436.369000       0.011423
     1436.782000       0.011539
     1437.195000       0.011470
     1437.608000       0.011271
     1438.021000       0.011185
     1438.435000       0.011070
     1438.849000       0.010762
     1439.263000       0.010185
     1439.677000       0.009535
     1440.092000       0.009002
     1440.507000       0.008594
     1440.922000       0.008270
     1441.338000       0.008149
     1441.753000       0.008229
     1442.169000       0.008675
     1442.585000       0.009331
     1443.001000       0.009923
     1443.418000       0.010263
     1443.835000       0.010300
     1444.252000       0.010091
     1444.669000       0.009736
     1445.087000       0.009352
     1445.504000       0.009107
     1445.922000       0.008816
     1446.341000       0.008353
     1446.759000       0.007548
     1447.178000       0.006460
     1447.597000       0.005416
     1448.016000       0.004772
     1448.436000       0.004561
     1448.855000       0.004557
     1449.275000       0.004605
     1449.696000       0.004552
     1450.116000       0.004831
     1450.537000       0.005357
     1450.958000       0.006215
     1451.379000       0.007334
     1451.800000       0.008399
     1452.222000       0.008844
     1452.644000       0.008361
     1453.066000       0.007215
     1453.488000       0.005915
     1453.911000       0.004864
     1454.334000       0.004123
     1454.757000       0.003694
     1455.180000       0.003477
     1455.604000       0.003351
     1456.028000       0.003259
     1456.452000       0.003330
     1456.876000       0.003914
     1457.301000       0.005126
     1457.726000       0.006455
     1458.151000       0.007411
     1458.576000       0.007577
     1459.002000       0.007348
     1459.428000       0.007167
     1459.854000       0.007257
     1460.280000       0.007434
     1460.707000       0.007287
     1461.134000       0.006577
     1461.561000       0.005475
     1461.988000       0.004507
     1462.416000       0.004043
     1462.844000       0.003948
     1463.272000       0.003884
     1463.700000       0.003686
     1464.129000       0.003470
     1464.558000       0.003389
     1464.987000       0.003506
     1465.416000       0.003742
     1465.846000       0.004078
     1466.276000       0.004528
     1466.706000       0.005103
     1467.136000       0.005732
     1467.567000       0.006393
     1467.998000       0.006911
     1468.429000       0.006962
     1468.860000       0.006345
     1469.292000       0.005301
     1469.724000       0.004294
     1470.156000       0.003694
     1470.588000       0.003454
     1471.021000       0.003374
     1471.454000       0.003203
     1471.887000       0.002931
     1472.320000       0.002580
     1472.754000       0.002139
     1473.188000       0.001812
     1473.622000       0.001856
     1474.057000       0.002147
     1474.491000       0.002396
     1474.926000       0.002402
     1475.361000       0.002198
     1475.797000       0.001855
     1476.233000       0.001429
     1476.669000       0.001037
     1477.105000       0.000849
     1477.541000       0.000959
     1477.978000       0.001367
     1478.415000       0.001922
     1478.852000       0.002343
     1479.290000       0.002435
     1479.728000       0.002213
     1480.166000       0.001893
     1480.604000       0.001717
     1481.043000       0.001782
     1481.481000       0.001962
     1481.921000       0.002171
     1482.360000       0.002366
     1482.800000       0.002534
     1483.239000       0.002593
     1483.680000       0.002517
     1484.120000       0.002339
     1484.561000       0.002064
     1485.001000       0.001752
     1485.443000       0.001472
     1485.884000       0.001308
     1486.326000       0.001322
     1486.768000       0.001552
     1487.210000       0.001809
     1487.652000       0.001847
     1488.095000       0.001633
     1488.538000       0.001356
     1488.982000       0.001246
     1489.425000       0.001446
     1489.869000       0.001774
     1490.313000       0.001728
     1490.757000       0.000967
