06 , goes_11_sounder_06.flt
Number of data points:
653
Wavenumber (cm-1)   Filter response
      760.400000       0.003684
      760.500000       0.003764
      760.600000       0.003850
      760.700000       0.003948
      760.800000       0.004054
      760.900000       0.004168
      761.000000       0.004298
      761.100000       0.004439
      761.200000       0.004599
      761.300000       0.004776
      761.400000       0.004962
      761.500000       0.005161
      761.600000       0.005362
      761.700000       0.005563
      761.800000       0.005766
      761.900000       0.005964
      762.000000       0.006164
      762.100000       0.006354
      762.200000       0.006527
      762.300000       0.006689
      762.400000       0.006832
      762.500000       0.006956
      762.600000       0.007051
      762.700000       0.007117
      762.800000       0.007160
      762.900000       0.007187
      763.000000       0.007201
      763.100000       0.007197
      763.200000       0.007179
      763.300000       0.007156
      763.400000       0.007126
      763.500000       0.007089
      763.600000       0.007043
      763.700000       0.006992
      763.800000       0.006940
      763.900000       0.006888
      764.000000       0.006837
      764.100000       0.006788
      764.200000       0.006744
      764.300000       0.006704
      764.400000       0.006673
      764.500000       0.006650
      764.600000       0.006639
      764.700000       0.006640
      764.800000       0.006654
      764.900000       0.006678
      765.000000       0.006714
      765.100000       0.006764
      765.200000       0.006819
      765.300000       0.006881
      765.400000       0.006954
      765.500000       0.007037
      765.600000       0.007133
      765.700000       0.007234
      765.800000       0.007338
      765.900000       0.007455
      766.000000       0.007578
      766.100000       0.007713
      766.200000       0.007862
      766.300000       0.008019
      766.400000       0.008183
      766.500000       0.008353
      766.600000       0.008537
      766.700000       0.008728
      766.800000       0.008920
      766.900000       0.009120
      767.000000       0.009323
      767.100000       0.009526
      767.200000       0.009735
      767.300000       0.009937
      767.400000       0.010139
      767.500000       0.010340
      767.600000       0.010538
      767.700000       0.010740
      767.800000       0.010941
      767.900000       0.011150
      768.000000       0.011359
      768.100000       0.011567
      768.200000       0.011783
      768.300000       0.011991
      768.400000       0.012200
      768.500000       0.012428
      768.600000       0.012660
      768.700000       0.012886
      768.800000       0.013111
      768.900000       0.013348
      769.000000       0.013605
      769.100000       0.013864
      769.200000       0.014131
      769.300000       0.014405
      769.400000       0.014701
      769.500000       0.015037
      769.600000       0.015378
      769.700000       0.015735
      769.800000       0.016124
      769.900000       0.016549
      770.000000       0.017019
      770.100000       0.017520
      770.200000       0.018085
      770.300000       0.018735
      770.400000       0.019442
      770.500000       0.020225
      770.600000       0.021075
      770.700000       0.022033
      770.800000       0.023150
      770.900000       0.024383
      771.000000       0.025786
      771.100000       0.027345
      771.200000       0.029082
      771.300000       0.031117
      771.400000       0.033372
      771.500000       0.035929
      771.600000       0.038849
      771.700000       0.042110
      771.800000       0.045941
      771.900000       0.050327
      772.000000       0.055369
      772.100000       0.061207
      772.200000       0.067359
      772.300000       0.073672
      772.400000       0.079536
      772.500000       0.084630
      772.600000       0.089628
      772.700000       0.094723
      772.800000       0.100477
      772.900000       0.107534
      773.000000       0.115865
      773.100000       0.125616
      773.200000       0.136259
      773.300000       0.147513
      773.400000       0.159375
      773.500000       0.171459
      773.600000       0.184172
      773.700000       0.196812
      773.800000       0.209520
      773.900000       0.222771
      774.000000       0.235945
      774.100000       0.249504
      774.200000       0.263474
      774.300000       0.277883
      774.400000       0.292932
      774.500000       0.308327
      774.600000       0.324460
      774.700000       0.340963
      774.800000       0.357622
      774.900000       0.374960
      775.000000       0.392193
      775.100000       0.409096
      775.200000       0.425581
      775.300000       0.441290
      775.400000       0.457314
      775.500000       0.472870
      775.600000       0.488439
      775.700000       0.504476
      775.800000       0.520202
      775.900000       0.536064
      776.000000       0.551408
      776.100000       0.566511
      776.200000       0.582287
      776.300000       0.597473
      776.400000       0.612062
      776.500000       0.625707
      776.600000       0.638558
      776.700000       0.651744
      776.800000       0.663978
      776.900000       0.675474
      777.000000       0.687068
      777.100000       0.697590
      777.200000       0.707125
      777.300000       0.716464
      777.400000       0.725360
      777.500000       0.733361
      777.600000       0.740761
      777.700000       0.747849
      777.800000       0.753585
      777.900000       0.758050
      778.000000       0.761875
      778.100000       0.764319
      778.200000       0.765552
      778.300000       0.766317
      778.400000       0.766818
      778.500000       0.767273
      778.600000       0.767969
      778.700000       0.768777
      778.800000       0.769317
      778.900000       0.769224
      779.000000       0.768287
      779.100000       0.766596
      779.200000       0.764704
      779.300000       0.763204
      779.400000       0.761992
      779.500000       0.760679
      779.600000       0.758815
      779.700000       0.756866
      779.800000       0.755381
      779.900000       0.754261
      780.000000       0.753082
      780.100000       0.751295
      780.200000       0.748843
      780.300000       0.745897
      780.400000       0.743165
      780.500000       0.740793
      780.600000       0.738734
      780.700000       0.736937
      780.800000       0.735193
      780.900000       0.733725
      781.000000       0.732838
      781.100000       0.732636
      781.200000       0.732537
      781.300000       0.732400
      781.400000       0.732615
      781.500000       0.733125
      781.600000       0.733949
      781.700000       0.735398
      781.800000       0.737467
      781.900000       0.739898
      782.000000       0.742386
      782.100000       0.744945
      782.200000       0.747565
      782.300000       0.749983
      782.400000       0.752008
      782.500000       0.753749
      782.600000       0.755560
      782.700000       0.757682
      782.800000       0.760381
      782.900000       0.763976
      783.000000       0.768017
      783.100000       0.772434
      783.200000       0.777603
      783.300000       0.782929
      783.400000       0.788271
      783.500000       0.793503
      783.600000       0.798398
      783.700000       0.802868
      783.800000       0.807057
      783.900000       0.811339
      784.000000       0.815595
      784.100000       0.819710
      784.200000       0.823985
      784.300000       0.828197
      784.400000       0.832548
      784.500000       0.837447
      784.600000       0.842711
      784.700000       0.848205
      784.800000       0.853365
      784.900000       0.858264
      785.000000       0.863272
      785.100000       0.868616
      785.200000       0.874491
      785.300000       0.880199
      785.400000       0.885860
      785.500000       0.891498
      785.600000       0.896890
      785.700000       0.902156
      785.800000       0.907054
      785.900000       0.912083
      786.000000       0.917511
      786.100000       0.922349
      786.200000       0.926634
      786.300000       0.930692
      786.400000       0.934879
      786.500000       0.939277
      786.600000       0.942940
      786.700000       0.946147
      786.800000       0.949436
      786.900000       0.952481
      787.000000       0.955222
      787.100000       0.957734
      787.200000       0.960315
      787.300000       0.963041
      787.400000       0.965368
      787.500000       0.967383
      787.600000       0.969429
      787.700000       0.971374
      787.800000       0.973346
      787.900000       0.975706
      788.000000       0.978149
      788.100000       0.979942
      788.200000       0.981348
      788.300000       0.982969
      788.400000       0.984915
      788.500000       0.986646
      788.600000       0.987725
      788.700000       0.988608
      788.800000       0.989583
      788.900000       0.990430
      789.000000       0.991111
      789.100000       0.991747
      789.200000       0.992672
      789.300000       0.993790
      789.400000       0.994741
      789.500000       0.995762
      789.600000       0.996886
      789.700000       0.997420
      789.800000       0.997710
      789.900000       0.998533
      790.000000       0.998925
      790.100000       0.998710
      790.200000       0.998996
      790.300000       0.999389
      790.400000       0.999171
      790.500000       0.999156
      790.600000       0.999656
      790.700000       1.000000
      790.800000       0.999717
      790.900000       0.998904
      791.000000       0.998133
      791.100000       0.997617
      791.200000       0.997348
      791.300000       0.997151
      791.400000       0.996891
      791.500000       0.996207
      791.600000       0.995098
      791.700000       0.993866
      791.800000       0.992463
      791.900000       0.991023
      792.000000       0.990065
      792.100000       0.989400
      792.200000       0.988641
      792.300000       0.987843
      792.400000       0.986954
      792.500000       0.985935
      792.600000       0.984904
      792.700000       0.983998
      792.800000       0.983273
      792.900000       0.982248
      793.000000       0.980554
      793.100000       0.979020
      793.200000       0.977945
      793.300000       0.976774
      793.400000       0.975406
      793.500000       0.974006
      793.600000       0.972657
      793.700000       0.970934
      793.800000       0.968422
      793.900000       0.965579
      794.000000       0.962785
      794.100000       0.960106
      794.200000       0.957183
      794.300000       0.953693
      794.400000       0.950337
      794.500000       0.947502
      794.600000       0.945178
      794.700000       0.943062
      794.800000       0.940909
      794.900000       0.938738
      795.000000       0.936436
      795.100000       0.934028
      795.200000       0.931549
      795.300000       0.929005
      795.400000       0.926391
      795.500000       0.923869
      795.600000       0.921849
      795.700000       0.919814
      795.800000       0.917215
      795.900000       0.914696
      796.000000       0.912372
      796.100000       0.910128
      796.200000       0.907942
      796.300000       0.905630
      796.400000       0.903235
      796.500000       0.901068
      796.600000       0.899384
      796.700000       0.897425
      796.800000       0.894849
      796.900000       0.892266
      797.000000       0.889676
      797.100000       0.886958
      797.200000       0.884226
      797.300000       0.881342
      797.400000       0.878372
      797.500000       0.875302
      797.600000       0.872060
      797.700000       0.868941
      797.800000       0.865572
      797.900000       0.861736
      798.000000       0.858384
      798.100000       0.855444
      798.200000       0.852013
      798.300000       0.848576
      798.400000       0.845784
      798.500000       0.842810
      798.600000       0.839431
      798.700000       0.836565
      798.800000       0.833806
      798.900000       0.830534
      799.000000       0.827207
      799.100000       0.824197
      799.200000       0.821784
      799.300000       0.819047
      799.400000       0.815575
      799.500000       0.812609
      799.600000       0.810099
      799.700000       0.807461
      799.800000       0.804837
      799.900000       0.802353
      800.000000       0.800211
      800.100000       0.798490
      800.200000       0.796945
      800.300000       0.794925
      800.400000       0.792434
      800.500000       0.790223
      800.600000       0.788008
      800.700000       0.785361
      800.800000       0.782529
      800.900000       0.779411
      801.000000       0.775999
      801.100000       0.773202
      801.200000       0.770650
      801.300000       0.766657
      801.400000       0.761876
      801.500000       0.757501
      801.600000       0.752877
      801.700000       0.747580
      801.800000       0.742426
      801.900000       0.736658
      802.000000       0.729785
      802.100000       0.722816
      802.200000       0.715414
      802.300000       0.707356
      802.400000       0.699070
      802.500000       0.690707
      802.600000       0.682330
      802.700000       0.673255
      802.800000       0.663373
      802.900000       0.652769
      803.000000       0.641054
      803.100000       0.628831
      803.200000       0.615971
      803.300000       0.602615
      803.400000       0.589718
      803.500000       0.576830
      803.600000       0.564098
      803.700000       0.551673
      803.800000       0.539281
      803.900000       0.527366
      804.000000       0.515444
      804.100000       0.503556
      804.200000       0.491788
      804.300000       0.479405
      804.400000       0.466747
      804.500000       0.453796
      804.600000       0.440571
      804.700000       0.427869
      804.800000       0.415315
      804.900000       0.403094
      805.000000       0.391400
      805.100000       0.379747
      805.200000       0.368225
      805.300000       0.356391
      805.400000       0.344429
      805.500000       0.332416
      805.600000       0.319229
      805.700000       0.305052
      805.800000       0.289385
      805.900000       0.273398
      806.000000       0.258590
      806.100000       0.245911
      806.200000       0.235251
      806.300000       0.225655
      806.400000       0.216329
      806.500000       0.207248
      806.600000       0.198163
      806.700000       0.189304
      806.800000       0.180654
      806.900000       0.172036
      807.000000       0.163940
      807.100000       0.156175
      807.200000       0.148761
      807.300000       0.141902
      807.400000       0.135465
      807.500000       0.129539
      807.600000       0.123696
      807.700000       0.117930
      807.800000       0.112246
      807.900000       0.106367
      808.000000       0.100602
      808.100000       0.094898
      808.200000       0.089318
      808.300000       0.084100
      808.400000       0.079073
      808.500000       0.074536
      808.600000       0.070466
      808.700000       0.066682
      808.800000       0.063269
      808.900000       0.060025
      809.000000       0.056962
      809.100000       0.054131
      809.200000       0.051428
      809.300000       0.048980
      809.400000       0.046760
      809.500000       0.044796
      809.600000       0.043129
      809.700000       0.041635
      809.800000       0.040326
      809.900000       0.039149
      810.000000       0.038005
      810.100000       0.036877
      810.200000       0.035701
      810.300000       0.034482
      810.400000       0.033229
      810.500000       0.031902
      810.600000       0.030588
      810.700000       0.029307
      810.800000       0.028083
      810.900000       0.026980
      811.000000       0.025971
      811.100000       0.025102
      811.200000       0.024359
      811.300000       0.023686
      811.400000       0.023081
      811.500000       0.022512
      811.600000       0.021984
      811.700000       0.021439
      811.800000       0.020851
      811.900000       0.020221
      812.000000       0.019530
      812.100000       0.018794
      812.200000       0.018038
      812.300000       0.017254
      812.400000       0.016473
      812.500000       0.015705
      812.600000       0.014968
      812.700000       0.014287
      812.800000       0.013644
      812.900000       0.013076
      813.000000       0.012591
      813.100000       0.012188
      813.200000       0.011847
      813.300000       0.011543
      813.400000       0.011292
      813.500000       0.011084
      813.600000       0.010901
      813.700000       0.010734
      813.800000       0.010571
      813.900000       0.010413
      814.000000       0.010258
      814.100000       0.010096
      814.200000       0.009931
      814.300000       0.009767
      814.400000       0.009611
      814.500000       0.009460
      814.600000       0.009309
      814.700000       0.009170
      814.800000       0.009045
      814.900000       0.008934
      815.000000       0.008847
      815.100000       0.008785
      815.200000       0.008747
      815.300000       0.008727
      815.400000       0.008721
      815.500000       0.008736
      815.600000       0.008766
      815.700000       0.008806
      815.800000       0.008854
      815.900000       0.008913
      816.000000       0.008982
      816.100000       0.009053
      816.200000       0.009126
      816.300000       0.009200
      816.400000       0.009277
      816.500000       0.009346
      816.600000       0.009406
      816.700000       0.009456
      816.800000       0.009486
      816.900000       0.009498
      817.000000       0.009493
      817.100000       0.009463
      817.200000       0.009400
      817.300000       0.009304
      817.400000       0.009160
      817.500000       0.008963
      817.600000       0.008719
      817.700000       0.008431
      817.800000       0.008117
      817.900000       0.007789
      818.000000       0.007454
      818.100000       0.007128
      818.200000       0.006813
      818.300000       0.006528
      818.400000       0.006281
      818.500000       0.006078
      818.600000       0.005924
      818.700000       0.005804
      818.800000       0.005712
      818.900000       0.005645
      819.000000       0.005599
      819.100000       0.005580
      819.200000       0.005582
      819.300000       0.005597
      819.400000       0.005623
      819.500000       0.005659
      819.600000       0.005702
      819.700000       0.005747
      819.800000       0.005791
      819.900000       0.005827
      820.000000       0.005853
      820.100000       0.005864
      820.200000       0.005856
      820.300000       0.005824
      820.400000       0.005768
      820.500000       0.005687
      820.600000       0.005587
      820.700000       0.005482
      820.800000       0.005368
      820.900000       0.005249
      821.000000       0.005132
      821.100000       0.005020
      821.200000       0.004920
      821.300000       0.004832
      821.400000       0.004764
      821.500000       0.004719
      821.600000       0.004699
      821.700000       0.004697
      821.800000       0.004712
      821.900000       0.004744
      822.000000       0.004778
      822.100000       0.004813
      822.200000       0.004851
      822.300000       0.004885
      822.400000       0.004911
      822.500000       0.004924
      822.600000       0.004919
      822.700000       0.004894
      822.800000       0.004843
      822.900000       0.004760
      823.000000       0.004641
      823.100000       0.004476
      823.200000       0.004277
      823.300000       0.004052
      823.400000       0.003806
      823.500000       0.003548
      823.600000       0.003285
      823.700000       0.003028
      823.800000       0.002786
      823.900000       0.002559
      824.000000       0.002364
      824.100000       0.002201
      824.200000       0.002082
      824.300000       0.002003
      824.400000       0.001957
      824.500000       0.001943
      824.600000       0.001958
      824.700000       0.002000
      824.800000       0.002064
      824.900000       0.002152
      825.000000       0.002263
      825.100000       0.002390
      825.200000       0.002538
      825.300000       0.002708
      825.400000       0.002919
      825.500000       0.003306
      825.600000       0.004521
