55,   55, MVIRI VIS channel from srf_MET7_2004168_2004169_1801-Release_S10EE_10.dat
Number of data points:
793
Wavenumber (cm-1)   Filter response
     8442.380800       0.000000
     8449.514200       0.000000
     8456.659600       0.000004
     8463.817200       0.000055
     8470.986900       0.000161
     8478.168700       0.000323
     8485.362700       0.000537
     8492.569000       0.000803
     8499.787500       0.001118
     8507.018300       0.001483
     8514.261400       0.001894
     8521.516800       0.002351
     8528.784600       0.002853
     8536.064900       0.003398
     8543.357500       0.003985
     8550.662700       0.004613
     8557.980300       0.005281
     8565.310500       0.005987
     8572.653200       0.006731
     8580.008600       0.007512
     8587.376600       0.008329
     8594.757200       0.009180
     8602.150500       0.010066
     8609.556600       0.010984
     8616.975400       0.011935
     8624.407100       0.012918
     8631.851500       0.013931
     8639.308900       0.014974
     8646.779100       0.016047
     8654.262200       0.017149
     8661.758300       0.018279
     8669.267400       0.019437
     8676.789600       0.020621
     8684.324800       0.021833
     8691.873100       0.023070
     8699.434500       0.024333
     8707.009100       0.025621
     8714.596900       0.026934
     8722.198000       0.028271
     8729.812300       0.029632
     8737.439900       0.031017
     8745.080900       0.032425
     8752.735200       0.033856
     8760.403000       0.035310
     8768.084200       0.036787
     8775.778900       0.038285
     8783.487000       0.039806
     8791.208800       0.041348
     8798.944100       0.042912
     8806.693100       0.044497
     8814.455700       0.046103
     8822.232000       0.047731
     8830.022100       0.049380
     8837.825900       0.051049
     8845.643500       0.052739
     8853.475000       0.054450
     8861.320300       0.056182
     8869.179600       0.057933
     8877.052800       0.059706
     8884.940000       0.061499
     8892.841300       0.063312
     8900.756600       0.065146
     8908.686000       0.067000
     8916.629500       0.068874
     8924.587200       0.070769
     8932.559200       0.072684
     8940.545400       0.074620
     8948.545900       0.076576
     8956.560700       0.078552
     8964.589900       0.080549
     8972.633500       0.082566
     8980.691500       0.084604
     8988.764000       0.086663
     8996.851100       0.088742
     9004.952700       0.090843
     9013.068900       0.092963
     9021.199800       0.095106
     9029.345400       0.097269
     9037.505600       0.099453
     9045.680700       0.101658
     9053.870500       0.103884
     9062.075200       0.106132
     9070.294800       0.108402
     9078.529300       0.110693
     9086.778700       0.113005
     9095.043200       0.115340
     9103.322700       0.117695
     9111.617300       0.120073
     9119.927000       0.122473
     9128.251900       0.124895
     9136.592100       0.127339
     9144.947400       0.129806
     9153.318100       0.132295
     9161.704100       0.134806
     9170.105500       0.137339
     9178.522300       0.139896
     9186.954500       0.142475
     9195.402300       0.145077
     9203.865600       0.147701
     9212.344500       0.150349
     9220.839100       0.153019
     9229.349300       0.155713
     9237.875300       0.158430
     9246.417000       0.161169
     9254.974500       0.163933
     9263.547900       0.166719
     9272.137200       0.169529
     9280.742500       0.172362
     9289.363700       0.175219
     9298.000900       0.178099
     9306.654300       0.181003
     9315.323700       0.183930
     9324.009300       0.186881
     9332.711200       0.189856
     9341.429200       0.192853
     9350.163600       0.195875
     9358.914400       0.198920
     9367.681500       0.201989
     9376.465100       0.205082
     9385.265100       0.208198
     9394.081700       0.211338
     9402.914900       0.214501
     9411.764700       0.217688
     9420.631200       0.220898
     9429.514400       0.224132
     9438.414300       0.227389
     9447.331100       0.230669
     9456.264800       0.233973
     9465.215300       0.237301
     9474.182900       0.240651
     9483.167400       0.244024
     9492.169000       0.247421
     9501.187600       0.250840
     9510.223500       0.254282
     9519.276500       0.257747
     9528.346800       0.261235
     9537.434400       0.264745
     9546.539400       0.268277
     9555.661700       0.271832
     9564.801500       0.275409
     9573.958800       0.279008
     9583.133700       0.282628
     9592.326100       0.286271
     9601.536200       0.289935
     9610.764100       0.293620
     9620.009600       0.297326
     9629.273000       0.301054
     9638.554200       0.304802
     9647.853400       0.308572
     9657.170400       0.312361
     9666.505600       0.316171
     9675.858700       0.320001
     9685.230000       0.323850
     9694.619500       0.327720
     9704.027200       0.331608
     9713.453100       0.335516
     9722.897400       0.339443
     9732.360100       0.343388
     9741.841200       0.347352
     9751.340800       0.351334
     9760.859000       0.355334
     9770.395700       0.359352
     9779.951100       0.363386
     9789.525200       0.367438
     9799.118100       0.371507
     9808.729800       0.375592
     9818.360300       0.379694
     9828.009800       0.383811
     9837.678300       0.387944
     9847.365800       0.392093
     9857.072400       0.396256
     9866.798200       0.400434
     9876.543200       0.404626
     9886.307500       0.408832
     9896.091000       0.413052
     9905.894000       0.417285
     9915.716400       0.421531
     9925.558300       0.425789
     9935.419800       0.430060
     9945.300800       0.434343
     9955.201600       0.438637
     9965.122100       0.442943
     9975.062300       0.447259
     9985.022500       0.451586
     9995.002500       0.455922
    10005.002500       0.460269
    10015.022500       0.464624
    10025.062700       0.468988
    10035.122900       0.473361
    10045.203400       0.477741
    10055.304200       0.482130
    10065.425300       0.486526
    10075.566800       0.490928
    10085.728700       0.495336
    10095.911200       0.499751
    10106.114200       0.504172
    10116.337900       0.508597
    10126.582300       0.513027
    10136.847400       0.517461
    10147.133400       0.521899
    10157.440300       0.526341
    10167.768200       0.530785
    10178.117000       0.535232
    10188.487000       0.539681
    10198.878100       0.544132
    10209.290500       0.548584
    10219.724100       0.553036
    10230.179000       0.557489
    10240.655400       0.561942
    10251.153300       0.566393
    10261.672700       0.570844
    10272.213700       0.575294
    10282.776300       0.579741
    10293.360800       0.584186
    10303.967000       0.588628
    10314.595200       0.593066
    10325.245200       0.597501
    10335.917300       0.601931
    10346.611500       0.606357
    10357.327800       0.610777
    10368.066400       0.615191
    10378.827200       0.619600
    10389.610400       0.624002
    10400.416000       0.628396
    10411.244100       0.632783
    10422.094800       0.637162
    10432.968200       0.641533
    10443.864200       0.645894
    10454.783100       0.650246
    10465.724800       0.654589
    10476.689400       0.658920
    10487.677000       0.663242
    10498.687700       0.667551
    10509.721500       0.671849
    10520.778500       0.676135
    10531.858900       0.680408
    10542.962600       0.684668
    10554.089700       0.688914
    10565.240400       0.693146
    10576.414600       0.697364
    10587.612500       0.701567
    10598.834100       0.705755
    10610.079600       0.709926
    10621.348900       0.714082
    10632.642200       0.718220
    10643.959600       0.722342
    10655.301000       0.726446
    10666.666700       0.730532
    10678.056600       0.734599
    10689.470900       0.738647
    10700.909600       0.742677
    10712.372800       0.746686
    10723.860600       0.750675
    10735.373100       0.754643
    10746.910300       0.758591
    10758.472300       0.762517
    10770.059200       0.766421
    10781.671200       0.770303
    10793.308100       0.774163
    10804.970300       0.777999
    10816.657700       0.781812
    10828.370300       0.785601
    10840.108400       0.789365
    10851.871900       0.793105
    10863.661100       0.796820
    10875.475800       0.800510
    10887.316300       0.804174
    10899.182600       0.807811
    10911.074700       0.811423
    10922.992900       0.815007
    10934.937100       0.818564
    10946.907500       0.822094
    10958.904100       0.825595
    10970.927000       0.829069
    10982.976400       0.832514
    10995.052200       0.835930
    11007.154700       0.839316
    11019.283700       0.842673
    11031.439600       0.846000
    11043.622300       0.849297
    11055.832000       0.852564
    11068.068600       0.855799
    11080.332400       0.859004
    11092.623400       0.862176
    11104.941700       0.865318
    11117.287400       0.868427
    11129.660500       0.871504
    11142.061300       0.874548
    11154.489700       0.877560
    11166.945800       0.880538
    11179.429800       0.883484
    11191.941800       0.886395
    11204.481800       0.889273
    11217.049900       0.892117
    11229.646300       0.894926
    11242.270900       0.897701
    11254.924000       0.900441
    11267.605600       0.903146
    11280.315800       0.905816
    11293.054800       0.908451
    11305.822500       0.911050
    11318.619100       0.913614
    11331.444800       0.916141
    11344.299500       0.918632
    11357.183400       0.921087
    11370.096600       0.923506
    11383.039300       0.925888
    11396.011400       0.928233
    11409.013100       0.930542
    11422.044500       0.932813
    11435.105800       0.935047
    11448.196900       0.937244
    11461.318100       0.939404
    11474.469300       0.941525
    11487.650800       0.943610
    11500.862600       0.945656
    11514.104800       0.947665
    11527.377500       0.949636
    11540.680900       0.951569
    11554.015000       0.953463
    11567.380000       0.955320
    11580.775900       0.957138
    11594.202900       0.958918
    11607.661100       0.960660
    11621.150500       0.962364
    11634.671300       0.964029
    11648.223600       0.965656
    11661.807600       0.967244
    11675.423200       0.968794
    11689.070700       0.970305
    11702.750100       0.971778
    11716.461600       0.973213
    11730.205300       0.974609
    11743.981200       0.975967
    11757.789500       0.977287
    11771.630400       0.978568
    11785.503800       0.979810
    11799.410000       0.981015
    11813.349100       0.982181
    11827.321100       0.983310
    11841.326200       0.984400
    11855.364600       0.985452
    11869.436200       0.986466
    11883.541300       0.987443
    11897.680000       0.988381
    11911.852300       0.989282
    11926.058400       0.990146
    11940.298500       0.990972
    11954.572600       0.991761
    11968.880900       0.992512
    11983.223500       0.993227
    11997.600500       0.993905
    12012.012000       0.994546
    12026.458200       0.995150
    12040.939200       0.995718
    12055.455100       0.996250
    12070.006000       0.996745
    12084.592100       0.997205
    12099.213600       0.997629
    12113.870400       0.998017
    12128.562800       0.998370
    12143.290800       0.998687
    12158.054700       0.998970
    12172.854500       0.999218
    12187.690400       0.999432
    12202.562500       0.999611
    12217.471000       0.999756
    12232.415900       0.999867
    12247.397400       0.999945
    12262.415700       0.999989
    12277.470800       1.000000
    12292.563000       0.999978
    12307.692300       0.999924
    12322.858900       0.999837
    12338.062900       0.999719
    12353.304500       0.999568
    12368.583800       0.999386
    12383.900900       0.999173
    12399.256000       0.998929
    12414.649300       0.998654
    12430.080800       0.998349
    12445.550700       0.998015
    12461.059200       0.997650
    12476.606400       0.997256
    12492.192400       0.996833
    12507.817400       0.996381
    12523.481500       0.995901
    12539.185000       0.995393
    12554.927800       0.994858
    12570.710200       0.994294
    12586.532400       0.993704
    12602.394500       0.993088
    12618.296500       0.992445
    12634.238800       0.991776
    12650.221400       0.991081
    12666.244500       0.990362
    12682.308200       0.989617
    12698.412700       0.988848
    12714.558200       0.988055
    12730.744700       0.987239
    12746.972600       0.986399
    12763.241900       0.985536
    12779.552700       0.984651
    12795.905300       0.983744
    12812.299800       0.982815
    12828.736400       0.981865
    12845.215200       0.980894
    12861.736300       0.979902
    12878.300100       0.978891
    12894.906500       0.977859
    12911.555800       0.976809
    12928.248200       0.975740
    12944.983800       0.974652
    12961.762800       0.973547
    12978.585300       0.972424
    12995.451600       0.971284
    13012.361700       0.970127
    13029.316000       0.968954
    13046.314400       0.967765
    13063.357300       0.966561
    13080.444700       0.965343
    13097.576900       0.964109
    13114.754100       0.962862
    13131.976400       0.961601
    13149.243900       0.960327
    13166.556900       0.959040
    13183.915600       0.957741
    13201.320100       0.956430
    13218.770700       0.955108
    13236.267400       0.953775
    13253.810500       0.952432
    13271.400100       0.951078
    13289.036500       0.949716
    13306.719900       0.948344
    13324.450400       0.946963
    13342.228200       0.945574
    13360.053400       0.944178
    13377.926400       0.942774
    13395.847300       0.941363
    13413.816200       0.939946
    13431.833400       0.938523
    13449.899100       0.937095
    13468.013500       0.935662
    13486.176700       0.934224
    13504.388900       0.932782
    13522.650400       0.931336
    13540.961400       0.929887
    13559.322000       0.928435
    13577.732500       0.926981
    13596.193100       0.925525
    13614.703900       0.924068
    13633.265200       0.922609
    13651.877100       0.921150
    13670.540000       0.919691
    13689.253900       0.918232
    13708.019200       0.916774
    13726.836000       0.915317
    13745.704500       0.913861
    13764.624900       0.912408
    13783.597500       0.910957
    13802.622500       0.909508
    13821.700100       0.908063
    13840.830400       0.906622
    13860.013900       0.905185
    13879.250500       0.903752
    13898.540700       0.902324
    13917.884500       0.900902
    13937.282200       0.899485
    13956.734100       0.898074
    13976.240400       0.896669
    13995.801300       0.895272
    14015.417000       0.893882
    14035.087700       0.892499
    14054.813800       0.891124
    14074.595400       0.889758
    14094.432700       0.888401
    14114.326000       0.887052
    14134.275600       0.885713
    14154.281700       0.884384
    14174.344400       0.883065
    14194.464200       0.881756
    14214.641100       0.880459
    14234.875400       0.879172
    14255.167500       0.877897
    14275.517500       0.876634
    14295.925700       0.875383
    14316.392300       0.874144
    14336.917600       0.872918
    14357.501800       0.871706
    14378.145200       0.870506
    14398.848100       0.869320
    14419.610700       0.868149
    14440.433200       0.866991
    14461.316000       0.865848
    14482.259200       0.864719
    14503.263200       0.863606
    14524.328200       0.862508
    14545.454500       0.861426
    14566.642400       0.860359
    14587.892000       0.859308
    14609.203800       0.858273
    14630.577900       0.857255
    14652.014700       0.856254
    14673.514300       0.855269
    14695.077100       0.854302
    14716.703500       0.853352
    14738.393500       0.852419
    14760.147600       0.851504
    14781.966000       0.850606
    14803.849000       0.849727
    14825.796900       0.848866
    14847.809900       0.848023
    14869.888500       0.847198
    14892.032800       0.846392
    14914.243100       0.845605
    14936.519800       0.844836
    14958.863100       0.844086
    14981.273400       0.843356
    15003.750900       0.842644
    15026.296000       0.841952
    15048.909000       0.841279
    15071.590100       0.840625
    15094.339600       0.839990
    15117.158000       0.839375
    15140.045400       0.838780
    15163.002300       0.838204
    15186.028900       0.837647
    15209.125500       0.837110
    15232.292500       0.836593
    15255.530100       0.836095
    15278.838800       0.835617
    15302.218800       0.835159
    15325.670500       0.834719
    15349.194200       0.834300
    15372.790200       0.833900
    15396.458800       0.833519
    15420.200500       0.833157
    15444.015400       0.832815
    15467.904100       0.832492
    15491.866800       0.832188
    15515.903800       0.831903
    15540.015500       0.831637
    15564.202300       0.831389
    15588.464500       0.831160
    15612.802500       0.830950
    15637.216600       0.830758
    15661.707100       0.830584
    15686.274500       0.830429
    15710.919100       0.830291
    15735.641200       0.830170
    15760.441300       0.830068
    15785.319700       0.829982
    15810.276700       0.829914
    15835.312700       0.829862
    15860.428200       0.829827
    15885.623500       0.829808
    15910.899000       0.829805
    15936.255000       0.829818
    15961.691900       0.829847
    15987.210200       0.829891
    16012.810200       0.829950
    16038.492400       0.830024
    16064.257000       0.830112
    16090.104600       0.830214
    16116.035500       0.830330
    16142.050000       0.830459
    16168.148700       0.830601
    16194.332000       0.830756
    16220.600200       0.830924
    16246.953700       0.831103
    16273.393000       0.831294
    16299.918500       0.831496
    16326.530600       0.831708
    16353.229800       0.831931
    16380.016400       0.832164
    16406.890900       0.832407
    16433.853700       0.832658
    16460.905300       0.832918
    16488.046200       0.833187
    16515.276600       0.833463
    16542.597200       0.833746
    16570.008300       0.834035
    16597.510400       0.834331
    16625.103900       0.834633
    16652.789300       0.834940
    16680.567100       0.835251
    16708.437800       0.835567
    16736.401700       0.835886
    16764.459300       0.836208
    16792.611300       0.836533
    16820.857900       0.836860
    16849.199700       0.837188
    16877.637100       0.837516
    16906.170800       0.837845
    16934.801000       0.838174
    16963.528400       0.838501
    16992.353400       0.838827
    17021.276600       0.839150
    17050.298400       0.839471
    17079.419300       0.839788
    17108.639900       0.840100
    17137.960600       0.840408
    17167.382000       0.840711
    17196.904600       0.841007
    17226.528900       0.841296
    17256.255400       0.841578
    17286.084700       0.841852
    17316.017300       0.842117
    17346.053800       0.842372
    17376.194600       0.842616
    17406.440400       0.842850
    17436.791600       0.843072
    17467.248900       0.843281
    17497.812800       0.843478
    17528.483800       0.843660
    17559.262500       0.843828
    17590.149500       0.843980
    17621.145400       0.844116
    17652.250700       0.844235
    17683.466000       0.844336
    17714.791900       0.844419
    17746.228900       0.844482
    17777.777800       0.844526
    17809.439000       0.844549
    17841.213200       0.844550
    17873.101000       0.844528
    17905.103000       0.844484
    17937.219700       0.844415
    17969.451900       0.844322
    18001.800200       0.844203
    18034.265100       0.844058
    18066.847300       0.843886
    18099.547500       0.843685
    18132.366300       0.843456
    18165.304300       0.843197
    18198.362100       0.842908
    18231.540600       0.842587
    18264.840200       0.842235
    18298.261700       0.841849
    18331.805700       0.841430
    18365.472900       0.840976
    18399.264000       0.840487
    18433.179700       0.839962
    18467.220700       0.839399
    18501.387600       0.838799
    18535.681200       0.838160
    18570.102100       0.837482
    18604.651200       0.836764
    18639.329000       0.836004
    18674.136300       0.835203
    18709.073900       0.834358
    18744.142500       0.833471
    18779.342700       0.832539
    18814.675400       0.831561
    18850.141400       0.830538
    18885.741300       0.829468
    18921.475900       0.828351
    18957.346000       0.827185
    18993.352300       0.825971
    19029.495700       0.824706
    19065.776900       0.823391
    19102.196800       0.822024
    19138.756000       0.820605
    19175.455400       0.819133
    19212.295900       0.817608
    19249.278200       0.816028
    19286.403100       0.814393
    19323.671500       0.812702
    19361.084200       0.810954
    19398.642100       0.809149
    19436.346000       0.807286
    19474.196700       0.805364
    19512.195100       0.803383
    19550.342100       0.801342
    19588.638600       0.799240
    19627.085400       0.797077
    19665.683400       0.794851
    19704.433500       0.792563
    19743.336600       0.790211
    19782.393700       0.787796
    19821.605600       0.785316
    19860.973200       0.782771
    19900.497500       0.780160
    19940.179500       0.777483
    19980.020000       0.774739
    20020.020000       0.771928
    20060.180500       0.769049
    20100.502500       0.766102
    20140.986900       0.763086
    20181.634700       0.760000
    20222.446900       0.756845
    20263.424500       0.753620
    20304.568500       0.750324
    20345.880000       0.746957
    20387.359800       0.743518
    20429.009200       0.740008
    20470.829100       0.736426
    20512.820500       0.732771
    20554.984600       0.729044
    20597.322300       0.725244
    20639.834900       0.721370
    20682.523300       0.717423
    20725.388600       0.713402
    20768.432000       0.709308
    20811.654500       0.705139
    20855.057400       0.700896
    20898.641600       0.696579
    20942.408400       0.692187
    20986.358900       0.687721
    21030.494200       0.683180
    21074.815600       0.678564
    21119.324200       0.673875
    21164.021200       0.669110
    21208.907700       0.664271
    21253.985100       0.659357
    21299.254500       0.654370
    21344.717200       0.649308
    21390.374300       0.644172
    21436.227200       0.638963
    21482.277100       0.633680
    21528.525300       0.628324
    21574.973000       0.622895
    21621.621600       0.617393
    21668.472400       0.611819
    21715.526600       0.606174
    21762.785600       0.600457
    21810.250800       0.594669
    21857.923500       0.588811
    21905.805000       0.582883
    21953.896800       0.576885
    22002.200200       0.570819
    22050.716600       0.564686
    22099.447500       0.558485
    22148.394200       0.552217
    22197.558300       0.545884
    22246.941000       0.539486
    22296.544000       0.533024
    22346.368700       0.526499
    22396.416600       0.519912
    22446.689100       0.513263
    22497.187900       0.506555
    22547.914300       0.499787
    22598.870100       0.492962
    22650.056600       0.486079
    22701.475600       0.479142
    22753.128600       0.472150
    22805.017100       0.465105
    22857.142900       0.458008
    22909.507400       0.450862
    22962.112500       0.443667
    23014.959700       0.436424
    23068.050700       0.429136
    23121.387300       0.421805
    23174.971000       0.414430
    23228.803700       0.407016
    23282.887100       0.399563
    23337.222900       0.392072
    23391.812900       0.384547
    23446.658900       0.376989
    23501.762600       0.369399
    23557.126000       0.361781
    23612.750900       0.354136
    23668.639100       0.346466
    23724.792400       0.338774
    23781.212800       0.331062
    23837.902300       0.323332
    23894.862600       0.315586
    23952.095800       0.307828
    24009.603800       0.300060
    24067.388700       0.292284
    24125.452400       0.284504
    24183.796900       0.276721
    24242.424200       0.268939
    24301.336600       0.261161
    24360.535900       0.253389
    24420.024400       0.245626
    24479.804200       0.237877
    24539.877300       0.230144
    24600.246000       0.222429
    24660.912500       0.214737
    24721.878900       0.207072
    24783.147500       0.199435
    24844.720500       0.191831
    24906.600200       0.184264
    24968.789000       0.176738
    25031.289100       0.169255
    25094.102900       0.161820
    25157.232700       0.154437
    25220.681000       0.147110
    25284.450100       0.139844
    25348.542500       0.132641
    25412.960600       0.125507
    25477.707000       0.118445
