   2  ,noaa_11_hirs_02.flt
Number of data points:
101
Wavenumber (cm-1)   Filter response
      649.480000       0.000000
      650.090000       0.000000
      650.680000       0.000000
      651.290000       0.000000
      651.890000       0.000000
      652.490000       0.000000
      653.090000       0.000000
      653.690000       0.000000
      654.300000       0.000000
      654.900000       0.000000
      655.500000       0.000000
      656.100000       0.000881
      656.700000       0.000846
      657.300000       0.000809
      657.910000       0.002404
      658.500000       0.002376
      659.110000       0.000199
      659.780000       0.001858
      660.370000       0.001957
      660.970000       0.004397
      661.560000       0.004514
      662.160000       0.004630
      662.750000       0.004749
      663.350000       0.002489
      663.950000       0.001573
      664.540000       0.004890
      665.140000       0.008134
      665.730000       0.011477
      666.320000       0.013795
      666.920000       0.018329
      667.500000       0.031952
      668.080000       0.056122
      668.660000       0.089516
      669.230000       0.120340
      669.920000       0.165980
      670.520000       0.234350
      671.130000       0.331620
      671.720000       0.433110
      672.310000       0.565150
      672.940000       0.673470
      673.530000       0.766860
      674.130000       0.844530
      674.730000       0.896620
      675.340000       0.929110
      675.940000       0.953970
      676.550000       0.969030
      677.160000       0.982310
      677.770000       0.991430
      678.380000       0.998360
      678.990000       1.000000
      679.560000       0.997060
      680.120000       0.996820
      680.770000       0.992050
      681.370000       0.990910
      681.970000       0.982450
      682.570000       0.968060
      683.180000       0.933670
      683.810000       0.867920
      684.400000       0.768040
      685.010000       0.635900
      685.640000       0.497820
      686.300000       0.367380
      686.870000       0.260490
      687.500000       0.185780
      688.090000       0.125320
      688.680000       0.092987
      689.270000       0.063515
      689.870000       0.043911
      690.470000       0.033176
      691.070000       0.028676
      691.670000       0.017252
      692.280000       0.009641
      692.880000       0.005837
      693.480000       0.005909
      694.080000       0.005982
      694.680000       0.006056
      695.280000       0.006130
      695.880000       0.004601
      696.480000       0.004674
      697.080000       0.000661
      697.680000       0.000704
      698.280000       0.000748
      698.890000       0.000793
      699.480000       0.001679
      700.060000       0.001659
      700.650000       0.001638
      701.240000       0.002484
      701.830000       0.002468
      702.420000       0.002458
      703.010000       0.002449
      703.600000       0.002437
      704.190000       0.002425
      704.780000       0.002412
      705.370000       0.002398
      705.960000       0.002384
      706.550000       0.002369
      707.140000       0.002354
      707.730000       0.000110
      708.320000       0.000074
      708.910000       0.000037
      709.500000       0.000000
