57,   57, MVIRI VIS channel from srf_MET5_1998123_1998124_1801-Release_S10EL_10.dat
Number of data points:
806
Wavenumber (cm-1)   Filter response
     8350.730700       0.000000
     8357.710000       0.000000
     8364.701000       0.000000
     8371.703600       0.000002
     8378.718100       0.000004
     8385.744200       0.000009
     8392.782200       0.000016
     8399.832000       0.000027
     8406.893700       0.000041
     8413.967200       0.000059
     8421.052600       0.000083
     8428.150000       0.000111
     8435.259400       0.000144
     8442.380800       0.000184
     8449.514200       0.000230
     8456.659600       0.000284
     8463.817200       0.000344
     8470.986900       0.000412
     8478.168700       0.000488
     8485.362700       0.000572
     8492.569000       0.000665
     8499.787500       0.000767
     8507.018300       0.000878
     8514.261400       0.000999
     8521.516800       0.001130
     8528.784600       0.001271
     8536.064900       0.001423
     8543.357500       0.001585
     8550.662700       0.001758
     8557.980300       0.001943
     8565.310500       0.002139
     8572.653200       0.002347
     8580.008600       0.002567
     8587.376600       0.002800
     8594.757200       0.003044
     8602.150500       0.003302
     8609.556600       0.003572
     8616.975400       0.003855
     8624.407100       0.004151
     8631.851500       0.004461
     8639.308900       0.004785
     8646.779100       0.005122
     8654.262200       0.005473
     8661.758300       0.005839
     8669.267400       0.006219
     8676.789600       0.006613
     8684.324800       0.007021
     8691.873100       0.007445
     8699.434500       0.007883
     8707.009100       0.008337
     8714.596900       0.008805
     8722.198000       0.009290
     8729.812300       0.009789
     8737.439900       0.010304
     8745.080900       0.010835
     8752.735200       0.011382
     8760.403000       0.011944
     8768.084200       0.012523
     8775.778900       0.013118
     8783.487000       0.013730
     8791.208800       0.014358
     8798.944100       0.015002
     8806.693100       0.015663
     8814.455700       0.016341
     8822.232000       0.017036
     8830.022100       0.017749
     8837.825900       0.018478
     8845.643500       0.019224
     8853.475000       0.019988
     8861.320300       0.020770
     8869.179600       0.021569
     8877.052800       0.022386
     8884.940000       0.023221
     8892.841300       0.024073
     8900.756600       0.024944
     8908.686000       0.025833
     8916.629500       0.026740
     8924.587200       0.027665
     8932.559200       0.028609
     8940.545400       0.029572
     8948.545900       0.030553
     8956.560700       0.031553
     8964.589900       0.032572
     8972.633500       0.033610
     8980.691500       0.034667
     8988.764000       0.035743
     8996.851100       0.036839
     9004.952700       0.037954
     9013.068900       0.039088
     9021.199800       0.040242
     9029.345400       0.041416
     9037.505600       0.042609
     9045.680700       0.043823
     9053.870500       0.045056
     9062.075200       0.046310
     9070.294800       0.047583
     9078.529300       0.048877
     9086.778700       0.050191
     9095.043200       0.051526
     9103.322700       0.052882
     9111.617300       0.054258
     9119.927000       0.055654
     9128.251900       0.057072
     9136.592100       0.058511
     9144.947400       0.059970
     9153.318100       0.061451
     9161.704100       0.062953
     9170.105500       0.064477
     9178.522300       0.066021
     9186.954500       0.067587
     9195.402300       0.069175
     9203.865600       0.070785
     9212.344500       0.072416
     9220.839100       0.074069
     9229.349300       0.075744
     9237.875300       0.077441
     9246.417000       0.079160
     9254.974500       0.080901
     9263.547900       0.082665
     9272.137200       0.084450
     9280.742500       0.086259
     9289.363700       0.088089
     9298.000900       0.089942
     9306.654300       0.091818
     9315.323700       0.093716
     9324.009300       0.095637
     9332.711200       0.097581
     9341.429200       0.099548
     9350.163600       0.101538
     9358.914400       0.103550
     9367.681500       0.105586
     9376.465100       0.107645
     9385.265100       0.109726
     9394.081700       0.111832
     9402.914900       0.113960
     9411.764700       0.116111
     9420.631200       0.118286
     9429.514400       0.120485
     9438.414300       0.122706
     9447.331100       0.124951
     9456.264800       0.127220
     9465.215300       0.129512
     9474.182900       0.131828
     9483.167400       0.134167
     9492.169000       0.136529
     9501.187600       0.138916
     9510.223500       0.141326
     9519.276500       0.143759
     9528.346800       0.146217
     9537.434400       0.148698
     9546.539400       0.151202
     9555.661700       0.153730
     9564.801500       0.156282
     9573.958800       0.158857
     9583.133700       0.161456
     9592.326100       0.164079
     9601.536200       0.166725
     9610.764100       0.169395
     9620.009600       0.172088
     9629.273000       0.174806
     9638.554200       0.177546
     9647.853400       0.180310
     9657.170400       0.183097
     9666.505600       0.185908
     9675.858700       0.188742
     9685.230000       0.191600
     9694.619500       0.194481
     9704.027200       0.197384
     9713.453100       0.200311
     9722.897400       0.203262
     9732.360100       0.206235
     9741.841200       0.209231
     9751.340800       0.212250
     9760.859000       0.215292
     9770.395700       0.218356
     9779.951100       0.221443
     9789.525200       0.224553
     9799.118100       0.227685
     9808.729800       0.230840
     9818.360300       0.234017
     9828.009800       0.237215
     9837.678300       0.240436
     9847.365800       0.243679
     9857.072400       0.246944
     9866.798200       0.250230
     9876.543200       0.253538
     9886.307500       0.256867
     9896.091000       0.260218
     9905.894000       0.263589
     9915.716400       0.266982
     9925.558300       0.270395
     9935.419800       0.273829
     9945.300800       0.277284
     9955.201600       0.280759
     9965.122100       0.284255
     9975.062300       0.287770
     9985.022500       0.291305
     9995.002500       0.294860
    10005.002500       0.298435
    10015.022500       0.302028
    10025.062700       0.305641
    10035.122900       0.309273
    10045.203400       0.312923
    10055.304200       0.316593
    10065.425300       0.320280
    10075.566800       0.323986
    10085.728700       0.327709
    10095.911200       0.331450
    10106.114200       0.335209
    10116.337900       0.338985
    10126.582300       0.342777
    10136.847400       0.346587
    10147.133400       0.350413
    10157.440300       0.354256
    10167.768200       0.358114
    10178.117000       0.361988
    10188.487000       0.365878
    10198.878100       0.369783
    10209.290500       0.373703
    10219.724100       0.377638
    10230.179000       0.381587
    10240.655400       0.385550
    10251.153300       0.389528
    10261.672700       0.393519
    10272.213700       0.397523
    10282.776300       0.401540
    10293.360800       0.405570
    10303.967000       0.409613
    10314.595200       0.413668
    10325.245200       0.417734
    10335.917300       0.421813
    10346.611500       0.425902
    10357.327800       0.430002
    10368.066400       0.434113
    10378.827200       0.438234
    10389.610400       0.442366
    10400.416000       0.446507
    10411.244100       0.450657
    10422.094800       0.454816
    10432.968200       0.458984
    10443.864200       0.463160
    10454.783100       0.467344
    10465.724800       0.471536
    10476.689400       0.475735
    10487.677000       0.479941
    10498.687700       0.484153
    10509.721500       0.488372
    10520.778500       0.492596
    10531.858900       0.496826
    10542.962600       0.501062
    10554.089700       0.505302
    10565.240400       0.509546
    10576.414600       0.513794
    10587.612500       0.518046
    10598.834100       0.522302
    10610.079600       0.526560
    10621.348900       0.530821
    10632.642200       0.535084
    10643.959600       0.539349
    10655.301000       0.543615
    10666.666700       0.547882
    10678.056600       0.552150
    10689.470900       0.556418
    10700.909600       0.560686
    10712.372800       0.564953
    10723.860600       0.569219
    10735.373100       0.573484
    10746.910300       0.577748
    10758.472300       0.582009
    10770.059200       0.586268
    10781.671200       0.590524
    10793.308100       0.594776
    10804.970300       0.599025
    10816.657700       0.603270
    10828.370300       0.607510
    10840.108400       0.611745
    10851.871900       0.615975
    10863.661100       0.620199
    10875.475800       0.624417
    10887.316300       0.628629
    10899.182600       0.632833
    10911.074700       0.637031
    10922.992900       0.641220
    10934.937100       0.645401
    10946.907500       0.649574
    10958.904100       0.653738
    10970.927000       0.657893
    10982.976400       0.662038
    10995.052200       0.666172
    11007.154700       0.670296
    11019.283700       0.674409
    11031.439600       0.678511
    11043.622300       0.682601
    11055.832000       0.686679
    11068.068600       0.690744
    11080.332400       0.694797
    11092.623400       0.698836
    11104.941700       0.702861
    11117.287400       0.706872
    11129.660500       0.710869
    11142.061300       0.714851
    11154.489700       0.718817
    11166.945800       0.722768
    11179.429800       0.726703
    11191.941800       0.730621
    11204.481800       0.734522
    11217.049900       0.738406
    11229.646300       0.742273
    11242.270900       0.746121
    11254.924000       0.749952
    11267.605600       0.753763
    11280.315800       0.757556
    11293.054800       0.761328
    11305.822500       0.765081
    11318.619100       0.768815
    11331.444800       0.772527
    11344.299500       0.776218
    11357.183400       0.779888
    11370.096600       0.783537
    11383.039300       0.787164
    11396.011400       0.790768
    11409.013100       0.794349
    11422.044500       0.797908
    11435.105800       0.801443
    11448.196900       0.804955
    11461.318100       0.808443
    11474.469300       0.811906
    11487.650800       0.815344
    11500.862600       0.818758
    11514.104800       0.822147
    11527.377500       0.825509
    11540.680900       0.828846
    11554.015000       0.832157
    11567.380000       0.835441
    11580.775900       0.838699
    11594.202900       0.841929
    11607.661100       0.845132
    11621.150500       0.848307
    11634.671300       0.851454
    11648.223600       0.854573
    11661.807600       0.857663
    11675.423200       0.860725
    11689.070700       0.863758
    11702.750100       0.866761
    11716.461600       0.869735
    11730.205300       0.872679
    11743.981200       0.875593
    11757.789500       0.878477
    11771.630400       0.881330
    11785.503800       0.884152
    11799.410000       0.886943
    11813.349100       0.889704
    11827.321100       0.892432
    11841.326200       0.895129
    11855.364600       0.897795
    11869.436200       0.900428
    11883.541300       0.903029
    11897.680000       0.905597
    11911.852300       0.908133
    11926.058400       0.910636
    11940.298500       0.913107
    11954.572600       0.915544
    11968.880900       0.917947
    11983.223500       0.920318
    11997.600500       0.922654
    12012.012000       0.924957
    12026.458200       0.927226
    12040.939200       0.929461
    12055.455100       0.931662
    12070.006000       0.933828
    12084.592100       0.935960
    12099.213600       0.938058
    12113.870400       0.940121
    12128.562800       0.942149
    12143.290800       0.944142
    12158.054700       0.946100
    12172.854500       0.948024
    12187.690400       0.949912
    12202.562500       0.951765
    12217.471000       0.953583
    12232.415900       0.955366
    12247.397400       0.957113
    12262.415700       0.958825
    12277.470800       0.960501
    12292.563000       0.962142
    12307.692300       0.963747
    12322.858900       0.965317
    12338.062900       0.966852
    12353.304500       0.968351
    12368.583800       0.969814
    12383.900900       0.971241
    12399.256000       0.972634
    12414.649300       0.973990
    12430.080800       0.975311
    12445.550700       0.976597
    12461.059200       0.977847
    12476.606400       0.979062
    12492.192400       0.980241
    12507.817400       0.981385
    12523.481500       0.982494
    12539.185000       0.983567
    12554.927800       0.984605
    12570.710200       0.985609
    12586.532400       0.986577
    12602.394500       0.987510
    12618.296500       0.988408
    12634.238800       0.989272
    12650.221400       0.990101
    12666.244500       0.990896
    12682.308200       0.991656
    12698.412700       0.992382
    12714.558200       0.993074
    12730.744700       0.993731
    12746.972600       0.994355
    12763.241900       0.994945
    12779.552700       0.995502
    12795.905300       0.996025
    12812.299800       0.996515
    12828.736400       0.996972
    12845.215200       0.997396
    12861.736300       0.997787
    12878.300100       0.998145
    12894.906500       0.998472
    12911.555800       0.998766
    12928.248200       0.999028
    12944.983800       0.999258
    12961.762800       0.999457
    12978.585300       0.999624
    12995.451600       0.999761
    13012.361700       0.999866
    13029.316000       0.999941
    13046.314400       0.999986
    13063.357300       1.000000
    13080.444700       0.999984
    13097.576900       0.999939
    13114.754100       0.999865
    13131.976400       0.999761
    13149.243900       0.999628
    13166.556900       0.999467
    13183.915600       0.999278
    13201.320100       0.999060
    13218.770700       0.998815
    13236.267400       0.998543
    13253.810500       0.998243
    13271.400100       0.997917
    13289.036500       0.997564
    13306.719900       0.997184
    13324.450400       0.996779
    13342.228200       0.996349
    13360.053400       0.995893
    13377.926400       0.995412
    13395.847300       0.994906
    13413.816200       0.994377
    13431.833400       0.993823
    13449.899100       0.993246
    13468.013500       0.992646
    13486.176700       0.992022
    13504.388900       0.991377
    13522.650400       0.990709
    13540.961400       0.990019
    13559.322000       0.989308
    13577.732500       0.988576
    13596.193100       0.987823
    13614.703900       0.987050
    13633.265200       0.986257
    13651.877100       0.985444
    13670.540000       0.984613
    13689.253900       0.983762
    13708.019200       0.982893
    13726.836000       0.982006
    13745.704500       0.981101
    13764.624900       0.980180
    13783.597500       0.979241
    13802.622500       0.978286
    13821.700100       0.977315
    13840.830400       0.976328
    13860.013900       0.975326
    13879.250500       0.974309
    13898.540700       0.973278
    13917.884500       0.972233
    13937.282200       0.971174
    13956.734100       0.970103
    13976.240400       0.969018
    13995.801300       0.967921
    14015.417000       0.966812
    14035.087700       0.965692
    14054.813800       0.964560
    14074.595400       0.963418
    14094.432700       0.962266
    14114.326000       0.961103
    14134.275600       0.959932
    14154.281700       0.958751
    14174.344400       0.957562
    14194.464200       0.956364
    14214.641100       0.955159
    14234.875400       0.953947
    14255.167500       0.952727
    14275.517500       0.951501
    14295.925700       0.950269
    14316.392300       0.949032
    14336.917600       0.947789
    14357.501800       0.946541
    14378.145200       0.945289
    14398.848100       0.944033
    14419.610700       0.942774
    14440.433200       0.941511
    14461.316000       0.940245
    14482.259200       0.938977
    14503.263200       0.937707
    14524.328200       0.936436
    14545.454500       0.935163
    14566.642400       0.933890
    14587.892000       0.932617
    14609.203800       0.931343
    14630.577900       0.930070
    14652.014700       0.928797
    14673.514300       0.927526
    14695.077100       0.926256
    14716.703500       0.924989
    14738.393500       0.923724
    14760.147600       0.922461
    14781.966000       0.921202
    14803.849000       0.919946
    14825.796900       0.918694
    14847.809900       0.917446
    14869.888500       0.916202
    14892.032800       0.914964
    14914.243100       0.913731
    14936.519800       0.912503
    14958.863100       0.911281
    14981.273400       0.910066
    15003.750900       0.908857
    15026.296000       0.907655
    15048.909000       0.906460
    15071.590100       0.905273
    15094.339600       0.904094
    15117.158000       0.902923
    15140.045400       0.901761
    15163.002300       0.900607
    15186.028900       0.899462
    15209.125500       0.898327
    15232.292500       0.897201
    15255.530100       0.896086
    15278.838800       0.894980
    15302.218800       0.893885
    15325.670500       0.892801
    15349.194200       0.891727
    15372.790200       0.890665
    15396.458800       0.889614
    15420.200500       0.888575
    15444.015400       0.887548
    15467.904100       0.886533
    15491.866800       0.885530
    15515.903800       0.884540
    15540.015500       0.883562
    15564.202300       0.882598
    15588.464500       0.881646
    15612.802500       0.880708
    15637.216600       0.879783
    15661.707100       0.878872
    15686.274500       0.877974
    15710.919100       0.877091
    15735.641200       0.876221
    15760.441300       0.875366
    15785.319700       0.874525
    15810.276700       0.873698
    15835.312700       0.872886
    15860.428200       0.872088
    15885.623500       0.871305
    15910.899000       0.870537
    15936.255000       0.869783
    15961.691900       0.869045
    15987.210200       0.868321
    16012.810200       0.867613
    16038.492400       0.866919
    16064.257000       0.866241
    16090.104600       0.865577
    16116.035500       0.864929
    16142.050000       0.864296
    16168.148700       0.863677
    16194.332000       0.863074
    16220.600200       0.862486
    16246.953700       0.861913
    16273.393000       0.861354
    16299.918500       0.860811
    16326.530600       0.860282
    16353.229800       0.859768
    16380.016400       0.859269
    16406.890900       0.858784
    16433.853700       0.858314
    16460.905300       0.857858
    16488.046200       0.857416
    16515.276600       0.856988
    16542.597200       0.856574
    16570.008300       0.856174
    16597.510400       0.855788
    16625.103900       0.855414
    16652.789300       0.855054
    16680.567100       0.854707
    16708.437800       0.854373
    16736.401700       0.854052
    16764.459300       0.853742
    16792.611300       0.853445
    16820.857900       0.853160
    16849.199700       0.852887
    16877.637100       0.852624
    16906.170800       0.852373
    16934.801000       0.852133
    16963.528400       0.851903
    16992.353400       0.851683
    17021.276600       0.851473
    17050.298400       0.851272
    17079.419300       0.851081
    17108.639900       0.850898
    17137.960600       0.850724
    17167.382000       0.850558
    17196.904600       0.850399
    17226.528900       0.850248
    17256.255400       0.850104
    17286.084700       0.849966
    17316.017300       0.849834
    17346.053800       0.849708
    17376.194600       0.849586
    17406.440400       0.849470
    17436.791600       0.849358
    17467.248900       0.849249
    17497.812800       0.849144
    17528.483800       0.849041
    17559.262500       0.848941
    17590.149500       0.848842
    17621.145400       0.848744
    17652.250700       0.848647
    17683.466000       0.848550
    17714.791900       0.848453
    17746.228900       0.848355
    17777.777800       0.848255
    17809.439000       0.848152
    17841.213200       0.848047
    17873.101000       0.847939
    17905.103000       0.847826
    17937.219700       0.847709
    17969.451900       0.847586
    18001.800200       0.847458
    18034.265100       0.847323
    18066.847300       0.847180
    18099.547500       0.847030
    18132.366300       0.846871
    18165.304300       0.846703
    18198.362100       0.846524
    18231.540600       0.846335
    18264.840200       0.846135
    18298.261700       0.845922
    18331.805700       0.845696
    18365.472900       0.845457
    18399.264000       0.845203
    18433.179700       0.844935
    18467.220700       0.844650
    18501.387600       0.844348
    18535.681200       0.844030
    18570.102100       0.843692
    18604.651200       0.843336
    18639.329000       0.842960
    18674.136300       0.842564
    18709.073900       0.842145
    18744.142500       0.841705
    18779.342700       0.841241
    18814.675400       0.840754
    18850.141400       0.840242
    18885.741300       0.839704
    18921.475900       0.839140
    18957.346000       0.838548
    18993.352300       0.837928
    19029.495700       0.837279
    19065.776900       0.836601
    19102.196800       0.835891
    19138.756000       0.835150
    19175.455400       0.834376
    19212.295900       0.833569
    19249.278200       0.832728
    19286.403100       0.831851
    19323.671500       0.830938
    19361.084200       0.829989
    19398.642100       0.829001
    19436.346000       0.827975
    19474.196700       0.826908
    19512.195100       0.825802
    19550.342100       0.824653
    19588.638600       0.823463
    19627.085400       0.822229
    19665.683400       0.820951
    19704.433500       0.819627
    19743.336600       0.818258
    19782.393700       0.816841
    19821.605600       0.815377
    19860.973200       0.813864
    19900.497500       0.812301
    19940.179500       0.810687
    19980.020000       0.809022
    20020.020000       0.807305
    20060.180500       0.805534
    20100.502500       0.803709
    20140.986900       0.801828
    20181.634700       0.799892
    20222.446900       0.797899
    20263.424500       0.795848
    20304.568500       0.793738
    20345.880000       0.791568
    20387.359800       0.789338
    20429.009200       0.787047
    20470.829100       0.784694
    20512.820500       0.782277
    20554.984600       0.779796
    20597.322300       0.777251
    20639.834900       0.774640
    20682.523300       0.771962
    20725.388600       0.769218
    20768.432000       0.766405
    20811.654500       0.763523
    20855.057400       0.760571
    20898.641600       0.757549
    20942.408400       0.754456
    20986.358900       0.751290
    21030.494200       0.748052
    21074.815600       0.744740
    21119.324200       0.741353
    21164.021200       0.737892
    21208.907700       0.734354
    21253.985100       0.730740
    21299.254500       0.727049
    21344.717200       0.723280
    21390.374300       0.719433
    21436.227200       0.715506
    21482.277100       0.711499
    21528.525300       0.707412
    21574.973000       0.703243
    21621.621600       0.698993
    21668.472400       0.694661
    21715.526600       0.690246
    21762.785600       0.685747
    21810.250800       0.681165
    21857.923500       0.676498
    21905.805000       0.671746
    21953.896800       0.666909
    22002.200200       0.661985
    22050.716600       0.656976
    22099.447500       0.651880
    22148.394200       0.646696
    22197.558300       0.641426
    22246.941000       0.636067
    22296.544000       0.630620
    22346.368700       0.625085
    22396.416600       0.619461
    22446.689100       0.613748
    22497.187900       0.607946
    22547.914300       0.602054
    22598.870100       0.596073
    22650.056600       0.590002
    22701.475600       0.583841
    22753.128600       0.577590
    22805.017100       0.571249
    22857.142900       0.564817
    22909.507400       0.558296
    22962.112500       0.551684
    23014.959700       0.544983
    23068.050700       0.538191
    23121.387300       0.531309
    23174.971000       0.524338
    23228.803700       0.517277
    23282.887100       0.510126
    23337.222900       0.502886
    23391.812900       0.495557
    23446.658900       0.488140
    23501.762600       0.480634
    23557.126000       0.473040
    23612.750900       0.465358
    23668.639100       0.457590
    23724.792400       0.449735
    23781.212800       0.441793
    23837.902300       0.433766
    23894.862600       0.425654
    23952.095800       0.417457
    24009.603800       0.409177
    24067.388700       0.400814
    24125.452400       0.392368
    24183.796900       0.383842
    24242.424200       0.375234
    24301.336600       0.366546
    24360.535900       0.357780
    24420.024400       0.348936
    24479.804200       0.340014
    24539.877300       0.331018
    24600.246000       0.321946
    24660.912500       0.312800
    24721.878900       0.303583
    24783.147500       0.294294
    24844.720500       0.284935
    24906.600200       0.275507
    24968.789000       0.266013
    25031.289100       0.256453
    25094.102900       0.246828
    25157.232700       0.237141
    25220.681000       0.227392
    25284.450100       0.217584
    25348.542500       0.207718
    25412.960600       0.197797
    25477.707000       0.187821
