41,   41, MVIRI VIS channel from srf_MET7_2002258_2002259_1801-Release_S10EE_10.dat
Number of data points:
793
Wavenumber (cm-1)   Filter response
     8442.380800       0.000000
     8449.514200       0.000000
     8456.659600       0.000004
     8463.817200       0.000054
     8470.986900       0.000159
     8478.168700       0.000318
     8485.362700       0.000530
     8492.569000       0.000792
     8499.787500       0.001104
     8507.018300       0.001464
     8514.261400       0.001870
     8521.516800       0.002322
     8528.784600       0.002817
     8536.064900       0.003356
     8543.357500       0.003935
     8550.662700       0.004556
     8557.980300       0.005215
     8565.310500       0.005913
     8572.653200       0.006648
     8580.008600       0.007419
     8587.376600       0.008226
     8594.757200       0.009067
     8602.150500       0.009942
     8609.556600       0.010850
     8616.975400       0.011789
     8624.407100       0.012760
     8631.851500       0.013761
     8639.308900       0.014792
     8646.779100       0.015853
     8654.262200       0.016941
     8661.758300       0.018058
     8669.267400       0.019202
     8676.789600       0.020373
     8684.324800       0.021570
     8691.873100       0.022793
     8699.434500       0.024042
     8707.009100       0.025315
     8714.596900       0.026613
     8722.198000       0.027935
     8729.812300       0.029280
     8737.439900       0.030649
     8745.080900       0.032042
     8752.735200       0.033457
     8760.403000       0.034894
     8768.084200       0.036354
     8775.778900       0.037836
     8783.487000       0.039339
     8791.208800       0.040864
     8798.944100       0.042411
     8806.693100       0.043979
     8814.455700       0.045568
     8822.232000       0.047178
     8830.022100       0.048808
     8837.825900       0.050460
     8845.643500       0.052132
     8853.475000       0.053824
     8861.320300       0.055537
     8869.179600       0.057270
     8877.052800       0.059024
     8884.940000       0.060798
     8892.841300       0.062592
     8900.756600       0.064406
     8908.686000       0.066241
     8916.629500       0.068096
     8924.587200       0.069971
     8932.559200       0.071866
     8940.545400       0.073782
     8948.545900       0.075718
     8956.560700       0.077674
     8964.589900       0.079651
     8972.633500       0.081647
     8980.691500       0.083665
     8988.764000       0.085703
     8996.851100       0.087762
     9004.952700       0.089841
     9013.068900       0.091941
     9021.199800       0.094062
     9029.345400       0.096204
     9037.505600       0.098367
     9045.680700       0.100551
     9053.870500       0.102755
     9062.075200       0.104982
     9070.294800       0.107229
     9078.529300       0.109498
     9086.778700       0.111789
     9095.043200       0.114101
     9103.322700       0.116435
     9111.617300       0.118790
     9119.927000       0.121168
     9128.251900       0.123567
     9136.592100       0.125989
     9144.947400       0.128432
     9153.318100       0.130899
     9161.704100       0.133387
     9170.105500       0.135897
     9178.522300       0.138431
     9186.954500       0.140987
     9195.402300       0.143565
     9203.865600       0.146166
     9212.344500       0.148790
     9220.839100       0.151438
     9229.349300       0.154107
     9237.875300       0.156801
     9246.417000       0.159517
     9254.974500       0.162256
     9263.547900       0.165019
     9272.137200       0.167805
     9280.742500       0.170614
     9289.363700       0.173446
     9298.000900       0.176302
     9306.654300       0.179182
     9315.323700       0.182085
     9324.009300       0.185011
     9332.711200       0.187961
     9341.429200       0.190935
     9350.163600       0.193932
     9358.914400       0.196952
     9367.681500       0.199997
     9376.465100       0.203065
     9385.265100       0.206156
     9394.081700       0.209271
     9402.914900       0.212409
     9411.764700       0.215571
     9420.631200       0.218757
     9429.514400       0.221966
     9438.414300       0.225198
     9447.331100       0.228453
     9456.264800       0.231732
     9465.215300       0.235035
     9474.182900       0.238360
     9483.167400       0.241708
     9492.169000       0.245080
     9501.187600       0.248474
     9510.223500       0.251891
     9519.276500       0.255331
     9528.346800       0.258794
     9537.434400       0.262279
     9546.539400       0.265786
     9555.661700       0.269316
     9564.801500       0.272868
     9573.958800       0.276442
     9583.133700       0.280038
     9592.326100       0.283655
     9601.536200       0.287295
     9610.764100       0.290955
     9620.009600       0.294637
     9629.273000       0.298340
     9638.554200       0.302064
     9647.853400       0.305809
     9657.170400       0.309574
     9666.505600       0.313359
     9675.858700       0.317165
     9685.230000       0.320990
     9694.619500       0.324836
     9704.027200       0.328700
     9713.453100       0.332584
     9722.897400       0.336487
     9732.360100       0.340409
     9741.841200       0.344349
     9751.340800       0.348307
     9760.859000       0.352284
     9770.395700       0.356279
     9779.951100       0.360290
     9789.525200       0.364320
     9799.118100       0.368366
     9808.729800       0.372428
     9818.360300       0.376507
     9828.009800       0.380602
     9837.678300       0.384713
     9847.365800       0.388839
     9857.072400       0.392981
     9866.798200       0.397137
     9876.543200       0.401307
     9886.307500       0.405492
     9896.091000       0.409691
     9905.894000       0.413903
     9915.716400       0.418129
     9925.558300       0.422367
     9935.419800       0.426618
     9945.300800       0.430880
     9955.201600       0.435155
     9965.122100       0.439441
     9975.062300       0.443737
     9985.022500       0.448045
     9995.002500       0.452363
    10005.002500       0.456690
    10015.022500       0.461027
    10025.062700       0.465373
    10035.122900       0.469728
    10045.203400       0.474091
    10055.304200       0.478462
    10065.425300       0.482841
    10075.566800       0.487226
    10085.728700       0.491619
    10095.911200       0.496017
    10106.114200       0.500422
    10116.337900       0.504831
    10126.582300       0.509246
    10136.847400       0.513665
    10147.133400       0.518089
    10157.440300       0.522516
    10167.768200       0.526947
    10178.117000       0.531380
    10188.487000       0.535816
    10198.878100       0.540254
    10209.290500       0.544693
    10219.724100       0.549133
    10230.179000       0.553574
    10240.655400       0.558015
    10251.153300       0.562456
    10261.672700       0.566896
    10272.213700       0.571335
    10282.776300       0.575772
    10293.360800       0.580207
    10303.967000       0.584640
    10314.595200       0.589069
    10325.245200       0.593495
    10335.917300       0.597918
    10346.611500       0.602336
    10357.327800       0.606749
    10368.066400       0.611156
    10378.827200       0.615558
    10389.610400       0.619954
    10400.416000       0.624343
    10411.244100       0.628725
    10422.094800       0.633099
    10432.968200       0.637465
    10443.864200       0.641823
    10454.783100       0.646171
    10465.724800       0.650510
    10476.689400       0.654840
    10487.677000       0.659159
    10498.687700       0.663467
    10509.721500       0.667763
    10520.778500       0.672048
    10531.858900       0.676321
    10542.962600       0.680581
    10554.089700       0.684828
    10565.240400       0.689061
    10576.414600       0.693281
    10587.612500       0.697485
    10598.834100       0.701676
    10610.079600       0.705850
    10621.348900       0.710009
    10632.642200       0.714151
    10643.959600       0.718277
    10655.301000       0.722386
    10666.666700       0.726477
    10678.056600       0.730550
    10689.470900       0.734605
    10700.909600       0.738641
    10712.372800       0.742658
    10723.860600       0.746654
    10735.373100       0.750631
    10746.910300       0.754588
    10758.472300       0.758523
    10770.059200       0.762437
    10781.671200       0.766329
    10793.308100       0.770199
    10804.970300       0.774047
    10816.657700       0.777871
    10828.370300       0.781672
    10840.108400       0.785449
    10851.871900       0.789203
    10863.661100       0.792932
    10875.475800       0.796635
    10887.316300       0.800314
    10899.182600       0.803967
    10911.074700       0.807594
    10922.992900       0.811194
    10934.937100       0.814768
    10946.907500       0.818315
    10958.904100       0.821834
    10970.927000       0.825326
    10982.976400       0.828790
    10995.052200       0.832225
    11007.154700       0.835631
    11019.283700       0.839008
    11031.439600       0.842356
    11043.622300       0.845674
    11055.832000       0.848962
    11068.068600       0.852219
    11080.332400       0.855446
    11092.623400       0.858642
    11104.941700       0.861807
    11117.287400       0.864940
    11129.660500       0.868042
    11142.061300       0.871111
    11154.489700       0.874149
    11166.945800       0.877153
    11179.429800       0.880125
    11191.941800       0.883063
    11204.481800       0.885968
    11217.049900       0.888840
    11229.646300       0.891677
    11242.270900       0.894481
    11254.924000       0.897251
    11267.605600       0.899985
    11280.315800       0.902686
    11293.054800       0.905351
    11305.822500       0.907981
    11318.619100       0.910576
    11331.444800       0.913135
    11344.299500       0.915659
    11357.183400       0.918146
    11370.096600       0.920598
    11383.039300       0.923014
    11396.011400       0.925393
    11409.013100       0.927736
    11422.044500       0.930042
    11435.105800       0.932312
    11448.196900       0.934544
    11461.318100       0.936740
    11474.469300       0.938898
    11487.650800       0.941019
    11500.862600       0.943103
    11514.104800       0.945149
    11527.377500       0.947158
    11540.680900       0.949129
    11554.015000       0.951063
    11567.380000       0.952959
    11580.775900       0.954817
    11594.202900       0.956637
    11607.661100       0.958419
    11621.150500       0.960163
    11634.671300       0.961869
    11648.223600       0.963537
    11661.807600       0.965167
    11675.423200       0.966759
    11689.070700       0.968313
    11702.750100       0.969829
    11716.461600       0.971306
    11730.205300       0.972746
    11743.981200       0.974147
    11757.789500       0.975511
    11771.630400       0.976836
    11785.503800       0.978123
    11799.410000       0.979373
    11813.349100       0.980584
    11827.321100       0.981758
    11841.326200       0.982894
    11855.364600       0.983992
    11869.436200       0.985052
    11883.541300       0.986075
    11897.680000       0.987061
    11911.852300       0.988009
    11926.058400       0.988920
    11940.298500       0.989793
    11954.572600       0.990630
    11968.880900       0.991429
    11983.223500       0.992192
    11997.600500       0.992918
    12012.012000       0.993608
    12026.458200       0.994261
    12040.939200       0.994878
    12055.455100       0.995459
    12070.006000       0.996004
    12084.592100       0.996513
    12099.213600       0.996987
    12113.870400       0.997425
    12128.562800       0.997829
    12143.290800       0.998197
    12158.054700       0.998530
    12172.854500       0.998829
    12187.690400       0.999093
    12202.562500       0.999323
    12217.471000       0.999520
    12232.415900       0.999682
    12247.397400       0.999811
    12262.415700       0.999907
    12277.470800       0.999970
    12292.563000       1.000000
    12307.692300       0.999998
    12322.858900       0.999963
    12338.062900       0.999897
    12353.304500       0.999799
    12368.583800       0.999669
    12383.900900       0.999508
    12399.256000       0.999317
    12414.649300       0.999095
    12430.080800       0.998843
    12445.550700       0.998561
    12461.059200       0.998249
    12476.606400       0.997908
    12492.192400       0.997538
    12507.817400       0.997140
    12523.481500       0.996713
    12539.185000       0.996258
    12554.927800       0.995776
    12570.710200       0.995266
    12586.532400       0.994729
    12602.394500       0.994166
    12618.296500       0.993576
    12634.238800       0.992961
    12650.221400       0.992320
    12666.244500       0.991654
    12682.308200       0.990963
    12698.412700       0.990248
    12714.558200       0.989508
    12730.744700       0.988745
    12746.972600       0.987959
    12763.241900       0.987150
    12779.552700       0.986318
    12795.905300       0.985465
    12812.299800       0.984589
    12828.736400       0.983693
    12845.215200       0.982775
    12861.736300       0.981837
    12878.300100       0.980879
    12894.906500       0.979901
    12911.555800       0.978904
    12928.248200       0.977889
    12944.983800       0.976855
    12961.762800       0.975802
    12978.585300       0.974733
    12995.451600       0.973646
    13012.361700       0.972543
    13029.316000       0.971423
    13046.314400       0.970287
    13063.357300       0.969137
    13080.444700       0.967971
    13097.576900       0.966790
    13114.754100       0.965596
    13131.976400       0.964388
    13149.243900       0.963167
    13166.556900       0.961933
    13183.915600       0.960687
    13201.320100       0.959429
    13218.770700       0.958159
    13236.267400       0.956879
    13253.810500       0.955588
    13271.400100       0.954287
    13289.036500       0.952977
    13306.719900       0.951657
    13324.450400       0.950329
    13342.228200       0.948992
    13360.053400       0.947648
    13377.926400       0.946296
    13395.847300       0.944938
    13413.816200       0.943573
    13431.833400       0.942202
    13449.899100       0.940826
    13468.013500       0.939444
    13486.176700       0.938058
    13504.388900       0.936668
    13522.650400       0.935274
    13540.961400       0.933876
    13559.322000       0.932476
    13577.732500       0.931074
    13596.193100       0.929669
    13614.703900       0.928263
    13633.265200       0.926856
    13651.877100       0.925448
    13670.540000       0.924041
    13689.253900       0.922633
    13708.019200       0.921226
    13726.836000       0.919820
    13745.704500       0.918416
    13764.624900       0.917013
    13783.597500       0.915613
    13802.622500       0.914216
    13821.700100       0.912822
    13840.830400       0.911432
    13860.013900       0.910045
    13879.250500       0.908664
    13898.540700       0.907287
    13917.884500       0.905915
    13937.282200       0.904549
    13956.734100       0.903189
    13976.240400       0.901836
    13995.801300       0.900489
    14015.417000       0.899150
    14035.087700       0.897818
    14054.813800       0.896494
    14074.595400       0.895179
    14094.432700       0.893872
    14114.326000       0.892575
    14134.275600       0.891287
    14154.281700       0.890008
    14174.344400       0.888740
    14194.464200       0.887483
    14214.641100       0.886236
    14234.875400       0.885001
    14255.167500       0.883777
    14275.517500       0.882565
    14295.925700       0.881365
    14316.392300       0.880178
    14336.917600       0.879004
    14357.501800       0.877842
    14378.145200       0.876694
    14398.848100       0.875560
    14419.610700       0.874440
    14440.433200       0.873334
    14461.316000       0.872243
    14482.259200       0.871167
    14503.263200       0.870106
    14524.328200       0.869060
    14545.454500       0.868029
    14566.642400       0.867015
    14587.892000       0.866017
    14609.203800       0.865035
    14630.577900       0.864070
    14652.014700       0.863121
    14673.514300       0.862190
    14695.077100       0.861275
    14716.703500       0.860379
    14738.393500       0.859499
    14760.147600       0.858638
    14781.966000       0.857794
    14803.849000       0.856969
    14825.796900       0.856162
    14847.809900       0.855373
    14869.888500       0.854603
    14892.032800       0.853852
    14914.243100       0.853120
    14936.519800       0.852406
    14958.863100       0.851712
    14981.273400       0.851037
    15003.750900       0.850381
    15026.296000       0.849745
    15048.909000       0.849128
    15071.590100       0.848531
    15094.339600       0.847953
    15117.158000       0.847395
    15140.045400       0.846857
    15163.002300       0.846338
    15186.028900       0.845840
    15209.125500       0.845361
    15232.292500       0.844902
    15255.530100       0.844462
    15278.838800       0.844043
    15302.218800       0.843643
    15325.670500       0.843264
    15349.194200       0.842904
    15372.790200       0.842564
    15396.458800       0.842243
    15420.200500       0.841942
    15444.015400       0.841661
    15467.904100       0.841399
    15491.866800       0.841156
    15515.903800       0.840933
    15540.015500       0.840729
    15564.202300       0.840544
    15588.464500       0.840378
    15612.802500       0.840231
    15637.216600       0.840102
    15661.707100       0.839992
    15686.274500       0.839900
    15710.919100       0.839827
    15735.641200       0.839771
    15760.441300       0.839734
    15785.319700       0.839714
    15810.276700       0.839711
    15835.312700       0.839726
    15860.428200       0.839757
    15885.623500       0.839805
    15910.899000       0.839870
    15936.255000       0.839950
    15961.691900       0.840047
    15987.210200       0.840159
    16012.810200       0.840287
    16038.492400       0.840430
    16064.257000       0.840587
    16090.104600       0.840759
    16116.035500       0.840945
    16142.050000       0.841145
    16168.148700       0.841358
    16194.332000       0.841584
    16220.600200       0.841823
    16246.953700       0.842074
    16273.393000       0.842337
    16299.918500       0.842612
    16326.530600       0.842897
    16353.229800       0.843194
    16380.016400       0.843500
    16406.890900       0.843817
    16433.853700       0.844142
    16460.905300       0.844477
    16488.046200       0.844820
    16515.276600       0.845172
    16542.597200       0.845530
    16570.008300       0.845896
    16597.510400       0.846268
    16625.103900       0.846647
    16652.789300       0.847030
    16680.567100       0.847419
    16708.437800       0.847812
    16736.401700       0.848209
    16764.459300       0.848609
    16792.611300       0.849012
    16820.857900       0.849417
    16849.199700       0.849824
    16877.637100       0.850232
    16906.170800       0.850640
    16934.801000       0.851048
    16963.528400       0.851455
    16992.353400       0.851861
    17021.276600       0.852265
    17050.298400       0.852666
    17079.419300       0.853063
    17108.639900       0.853457
    17137.960600       0.853845
    17167.382000       0.854229
    17196.904600       0.854606
    17226.528900       0.854977
    17256.255400       0.855340
    17286.084700       0.855695
    17316.017300       0.856042
    17346.053800       0.856379
    17376.194600       0.856705
    17406.440400       0.857021
    17436.791600       0.857325
    17467.248900       0.857616
    17497.812800       0.857894
    17528.483800       0.858158
    17559.262500       0.858408
    17590.149500       0.858642
    17621.145400       0.858859
    17652.250700       0.859060
    17683.466000       0.859243
    17714.791900       0.859407
    17746.228900       0.859552
    17777.777800       0.859677
    17809.439000       0.859780
    17841.213200       0.859862
    17873.101000       0.859922
    17905.103000       0.859958
    17937.219700       0.859969
    17969.451900       0.859956
    18001.800200       0.859917
    18034.265100       0.859851
    18066.847300       0.859757
    18099.547500       0.859635
    18132.366300       0.859484
    18165.304300       0.859303
    18198.362100       0.859091
    18231.540600       0.858847
    18264.840200       0.858571
    18298.261700       0.858261
    18331.805700       0.857918
    18365.472900       0.857539
    18399.264000       0.857124
    18433.179700       0.856672
    18467.220700       0.856182
    18501.387600       0.855655
    18535.681200       0.855087
    18570.102100       0.854480
    18604.651200       0.853832
    18639.329000       0.853141
    18674.136300       0.852408
    18709.073900       0.851632
    18744.142500       0.850811
    18779.342700       0.849945
    18814.675400       0.849033
    18850.141400       0.848073
    18885.741300       0.847067
    18921.475900       0.846011
    18957.346000       0.844907
    18993.352300       0.843752
    19029.495700       0.842546
    19065.776900       0.841288
    19102.196800       0.839978
    19138.756000       0.838614
    19175.455400       0.837196
    19212.295900       0.835723
    19249.278200       0.834195
    19286.403100       0.832609
    19323.671500       0.830967
    19361.084200       0.829266
    19398.642100       0.827507
    19436.346000       0.825688
    19474.196700       0.823809
    19512.195100       0.821869
    19550.342100       0.819867
    19588.638600       0.817803
    19627.085400       0.815676
    19665.683400       0.813485
    19704.433500       0.811229
    19743.336600       0.808909
    19782.393700       0.806522
    19821.605600       0.804070
    19860.973200       0.801550
    19900.497500       0.798963
    19940.179500       0.796307
    19980.020000       0.793583
    20020.020000       0.790789
    20060.180500       0.787925
    20100.502500       0.784991
    20140.986900       0.781986
    20181.634700       0.778909
    20222.446900       0.775761
    20263.424500       0.772540
    20304.568500       0.769246
    20345.880000       0.765878
    20387.359800       0.762438
    20429.009200       0.758922
    20470.829100       0.755333
    20512.820500       0.751668
    20554.984600       0.747928
    20597.322300       0.744113
    20639.834900       0.740222
    20682.523300       0.736254
    20725.388600       0.732211
    20768.432000       0.728091
    20811.654500       0.723894
    20855.057400       0.719619
    20898.641600       0.715268
    20942.408400       0.710840
    20986.358900       0.706334
    21030.494200       0.701751
    21074.815600       0.697090
    21119.324200       0.692352
    21164.021200       0.687536
    21208.907700       0.682643
    21253.985100       0.677672
    21299.254500       0.672625
    21344.717200       0.667499
    21390.374300       0.662297
    21436.227200       0.657018
    21482.277100       0.651662
    21528.525300       0.646230
    21574.973000       0.640722
    21621.621600       0.635138
    21668.472400       0.629479
    21715.526600       0.623744
    21762.785600       0.617935
    21810.250800       0.612052
    21857.923500       0.606095
    21905.805000       0.600065
    21953.896800       0.593963
    22002.200200       0.587788
    22050.716600       0.581542
    22099.447500       0.575226
    22148.394200       0.568839
    22197.558300       0.562384
    22246.941000       0.555860
    22296.544000       0.549270
    22346.368700       0.542612
    22396.416600       0.535889
    22446.689100       0.529101
    22497.187900       0.522250
    22547.914300       0.515337
    22598.870100       0.508362
    22650.056600       0.501327
    22701.475600       0.494233
    22753.128600       0.487082
    22805.017100       0.479874
    22857.142900       0.472612
    22909.507400       0.465296
    22962.112500       0.457928
    23014.959700       0.450510
    23068.050700       0.443043
    23121.387300       0.435529
    23174.971000       0.427969
    23228.803700       0.420366
    23282.887100       0.412721
    23337.222900       0.405036
    23391.812900       0.397313
    23446.658900       0.389553
    23501.762600       0.381760
    23557.126000       0.373935
    23612.750900       0.366081
    23668.639100       0.358199
    23724.792400       0.350292
    23781.212800       0.342362
    23837.902300       0.334412
    23894.862600       0.326444
    23952.095800       0.318461
    24009.603800       0.310466
    24067.388700       0.302460
    24125.452400       0.294448
    24183.796900       0.286431
    24242.424200       0.278413
    24301.336600       0.270396
    24360.535900       0.262385
    24420.024400       0.254381
    24479.804200       0.246388
    24539.877300       0.238410
    24600.246000       0.230450
    24660.912500       0.222511
    24721.878900       0.214597
    24783.147500       0.206711
    24844.720500       0.198857
    24906.600200       0.191039
    24968.789000       0.183260
    25031.289100       0.175526
    25094.102900       0.167838
    25157.232700       0.160203
    25220.681000       0.152624
    25284.450100       0.145105
    25348.542500       0.137650
    25412.960600       0.130264
    25477.707000       0.122953
