15,   15, MVIRI VIS channel from srf_MET4_1991123_1991124_1801-Release_S10EL_10.dat
Number of data points:
752
Wavenumber (cm-1)   Filter response
     8745.080900       0.000000
     8752.735200       0.000000
     8760.403000       0.000001
     8768.084200       0.000059
     8775.778900       0.000198
     8783.487000       0.000418
     8791.208800       0.000715
     8798.944100       0.001088
     8806.693100       0.001533
     8814.455700       0.002049
     8822.232000       0.002634
     8830.022100       0.003286
     8837.825900       0.004002
     8845.643500       0.004780
     8853.475000       0.005620
     8861.320300       0.006518
     8869.179600       0.007473
     8877.052800       0.008484
     8884.940000       0.009549
     8892.841300       0.010666
     8900.756600       0.011833
     8908.686000       0.013050
     8916.629500       0.014313
     8924.587200       0.015624
     8932.559200       0.016979
     8940.545400       0.018378
     8948.545900       0.019818
     8956.560700       0.021300
     8964.589900       0.022822
     8972.633500       0.024382
     8980.691500       0.025981
     8988.764000       0.027615
     8996.851100       0.029285
     9004.952700       0.030990
     9013.068900       0.032728
     9021.199800       0.034499
     9029.345400       0.036302
     9037.505600       0.038136
     9045.680700       0.039999
     9053.870500       0.041892
     9062.075200       0.043814
     9070.294800       0.045764
     9078.529300       0.047741
     9086.778700       0.049745
     9095.043200       0.051775
     9103.322700       0.053830
     9111.617300       0.055910
     9119.927000       0.058013
     9128.251900       0.060141
     9136.592100       0.062292
     9144.947400       0.064466
     9153.318100       0.066662
     9161.704100       0.068880
     9170.105500       0.071120
     9178.522300       0.073381
     9186.954500       0.075662
     9195.402300       0.077964
     9203.865600       0.080286
     9212.344500       0.082628
     9220.839100       0.084989
     9229.349300       0.087369
     9237.875300       0.089769
     9246.417000       0.092187
     9254.974500       0.094624
     9263.547900       0.097079
     9272.137200       0.099552
     9280.742500       0.102044
     9289.363700       0.104552
     9298.000900       0.107079
     9306.654300       0.109624
     9315.323700       0.112185
     9324.009300       0.114764
     9332.711200       0.117360
     9341.429200       0.119973
     9350.163600       0.122603
     9358.914400       0.125249
     9367.681500       0.127913
     9376.465100       0.130594
     9385.265100       0.133291
     9394.081700       0.136005
     9402.914900       0.138735
     9411.764700       0.141482
     9420.631200       0.144246
     9429.514400       0.147025
     9438.414300       0.149822
     9447.331100       0.152635
     9456.264800       0.155465
     9465.215300       0.158311
     9474.182900       0.161173
     9483.167400       0.164053
     9492.169000       0.166948
     9501.187600       0.169861
     9510.223500       0.172789
     9519.276500       0.175734
     9528.346800       0.178697
     9537.434400       0.181675
     9546.539400       0.184670
     9555.661700       0.187682
     9564.801500       0.190710
     9573.958800       0.193755
     9583.133700       0.196817
     9592.326100       0.199896
     9601.536200       0.202991
     9610.764100       0.206103
     9620.009600       0.209233
     9629.273000       0.212379
     9638.554200       0.215541
     9647.853400       0.218721
     9657.170400       0.221917
     9666.505600       0.225131
     9675.858700       0.228361
     9685.230000       0.231608
     9694.619500       0.234873
     9704.027200       0.238154
     9713.453100       0.241452
     9722.897400       0.244767
     9732.360100       0.248099
     9741.841200       0.251448
     9751.340800       0.254814
     9760.859000       0.258197
     9770.395700       0.261597
     9779.951100       0.265014
     9789.525200       0.268448
     9799.118100       0.271899
     9808.729800       0.275366
     9818.360300       0.278850
     9828.009800       0.282351
     9837.678300       0.285869
     9847.365800       0.289404
     9857.072400       0.292954
     9866.798200       0.296522
     9876.543200       0.300106
     9886.307500       0.303707
     9896.091000       0.307324
     9905.894000       0.310957
     9915.716400       0.314606
     9925.558300       0.318272
     9935.419800       0.321954
     9945.300800       0.325651
     9955.201600       0.329364
     9965.122100       0.333094
     9975.062300       0.336838
     9985.022500       0.340599
     9995.002500       0.344375
    10005.002500       0.348165
    10015.022500       0.351971
    10025.062700       0.355792
    10035.122900       0.359628
    10045.203400       0.363479
    10055.304200       0.367344
    10065.425300       0.371223
    10075.566800       0.375117
    10085.728700       0.379024
    10095.911200       0.382946
    10106.114200       0.386881
    10116.337900       0.390830
    10126.582300       0.394791
    10136.847400       0.398766
    10147.133400       0.402755
    10157.440300       0.406755
    10167.768200       0.410768
    10178.117000       0.414793
    10188.487000       0.418830
    10198.878100       0.422880
    10209.290500       0.426940
    10219.724100       0.431012
    10230.179000       0.435095
    10240.655400       0.439188
    10251.153300       0.443293
    10261.672700       0.447407
    10272.213700       0.451531
    10282.776300       0.455665
    10293.360800       0.459809
    10303.967000       0.463962
    10314.595200       0.468124
    10325.245200       0.472294
    10335.917300       0.476472
    10346.611500       0.480659
    10357.327800       0.484853
    10368.066400       0.489054
    10378.827200       0.493263
    10389.610400       0.497478
    10400.416000       0.501700
    10411.244100       0.505928
    10422.094800       0.510161
    10432.968200       0.514400
    10443.864200       0.518644
    10454.783100       0.522893
    10465.724800       0.527146
    10476.689400       0.531403
    10487.677000       0.535664
    10498.687700       0.539927
    10509.721500       0.544194
    10520.778500       0.548464
    10531.858900       0.552735
    10542.962600       0.557009
    10554.089700       0.561284
    10565.240400       0.565560
    10576.414600       0.569836
    10587.612500       0.574113
    10598.834100       0.578390
    10610.079600       0.582666
    10621.348900       0.586942
    10632.642200       0.591216
    10643.959600       0.595488
    10655.301000       0.599759
    10666.666700       0.604026
    10678.056600       0.608291
    10689.470900       0.612553
    10700.909600       0.616811
    10712.372800       0.621065
    10723.860600       0.625314
    10735.373100       0.629558
    10746.910300       0.633797
    10758.472300       0.638030
    10770.059200       0.642257
    10781.671200       0.646477
    10793.308100       0.650691
    10804.970300       0.654897
    10816.657700       0.659094
    10828.370300       0.663284
    10840.108400       0.667464
    10851.871900       0.671636
    10863.661100       0.675798
    10875.475800       0.679950
    10887.316300       0.684091
    10899.182600       0.688222
    10911.074700       0.692341
    10922.992900       0.696448
    10934.937100       0.700543
    10946.907500       0.704626
    10958.904100       0.708695
    10970.927000       0.712752
    10982.976400       0.716794
    10995.052200       0.720822
    11007.154700       0.724835
    11019.283700       0.728833
    11031.439600       0.732815
    11043.622300       0.736782
    11055.832000       0.740731
    11068.068600       0.744664
    11080.332400       0.748580
    11092.623400       0.752478
    11104.941700       0.756358
    11117.287400       0.760220
    11129.660500       0.764062
    11142.061300       0.767885
    11154.489700       0.771688
    11166.945800       0.775472
    11179.429800       0.779234
    11191.941800       0.782976
    11204.481800       0.786696
    11217.049900       0.790394
    11229.646300       0.794071
    11242.270900       0.797724
    11254.924000       0.801355
    11267.605600       0.804962
    11280.315800       0.808546
    11293.054800       0.812105
    11305.822500       0.815640
    11318.619100       0.819150
    11331.444800       0.822635
    11344.299500       0.826094
    11357.183400       0.829527
    11370.096600       0.832934
    11383.039300       0.836314
    11396.011400       0.839668
    11409.013100       0.842993
    11422.044500       0.846291
    11435.105800       0.849561
    11448.196900       0.852802
    11461.318100       0.856014
    11474.469300       0.859198
    11487.650800       0.862352
    11500.862600       0.865476
    11514.104800       0.868570
    11527.377500       0.871633
    11540.680900       0.874666
    11554.015000       0.877668
    11567.380000       0.880638
    11580.775900       0.883577
    11594.202900       0.886484
    11607.661100       0.889359
    11621.150500       0.892201
    11634.671300       0.895010
    11648.223600       0.897787
    11661.807600       0.900530
    11675.423200       0.903239
    11689.070700       0.905915
    11702.750100       0.908556
    11716.461600       0.911163
    11730.205300       0.913735
    11743.981200       0.916273
    11757.789500       0.918776
    11771.630400       0.921243
    11785.503800       0.923675
    11799.410000       0.926071
    11813.349100       0.928431
    11827.321100       0.930755
    11841.326200       0.933043
    11855.364600       0.935294
    11869.436200       0.937508
    11883.541300       0.939686
    11897.680000       0.941826
    11911.852300       0.943930
    11926.058400       0.945995
    11940.298500       0.948024
    11954.572600       0.950014
    11968.880900       0.951967
    11983.223500       0.953882
    11997.600500       0.955758
    12012.012000       0.957597
    12026.458200       0.959397
    12040.939200       0.961158
    12055.455100       0.962881
    12070.006000       0.964565
    12084.592100       0.966211
    12099.213600       0.967817
    12113.870400       0.969385
    12128.562800       0.970913
    12143.290800       0.972403
    12158.054700       0.973853
    12172.854500       0.975264
    12187.690400       0.976636
    12202.562500       0.977968
    12217.471000       0.979261
    12232.415900       0.980515
    12247.397400       0.981730
    12262.415700       0.982904
    12277.470800       0.984040
    12292.563000       0.985136
    12307.692300       0.986193
    12322.858900       0.987210
    12338.062900       0.988188
    12353.304500       0.989126
    12368.583800       0.990025
    12383.900900       0.990885
    12399.256000       0.991705
    12414.649300       0.992486
    12430.080800       0.993228
    12445.550700       0.993931
    12461.059200       0.994595
    12476.606400       0.995220
    12492.192400       0.995806
    12507.817400       0.996353
    12523.481500       0.996861
    12539.185000       0.997331
    12554.927800       0.997762
    12570.710200       0.998155
    12586.532400       0.998510
    12602.394500       0.998826
    12618.296500       0.999104
    12634.238800       0.999345
    12650.221400       0.999548
    12666.244500       0.999713
    12682.308200       0.999840
    12698.412700       0.999931
    12714.558200       0.999984
    12730.744700       1.000000
    12746.972600       0.999979
    12763.241900       0.999922
    12779.552700       0.999829
    12795.905300       0.999699
    12812.299800       0.999534
    12828.736400       0.999332
    12845.215200       0.999095
    12861.736300       0.998823
    12878.300100       0.998515
    12894.906500       0.998173
    12911.555800       0.997796
    12928.248200       0.997385
    12944.983800       0.996939
    12961.762800       0.996460
    12978.585300       0.995947
    12995.451600       0.995400
    13012.361700       0.994821
    13029.316000       0.994208
    13046.314400       0.993563
    13063.357300       0.992886
    13080.444700       0.992177
    13097.576900       0.991436
    13114.754100       0.990664
    13131.976400       0.989861
    13149.243900       0.989027
    13166.556900       0.988163
    13183.915600       0.987268
    13201.320100       0.986344
    13218.770700       0.985390
    13236.267400       0.984407
    13253.810500       0.983395
    13271.400100       0.982355
    13289.036500       0.981287
    13306.719900       0.980191
    13324.450400       0.979068
    13342.228200       0.977917
    13360.053400       0.976740
    13377.926400       0.975537
    13395.847300       0.974308
    13413.816200       0.973053
    13431.833400       0.971773
    13449.899100       0.970468
    13468.013500       0.969139
    13486.176700       0.967786
    13504.388900       0.966409
    13522.650400       0.965009
    13540.961400       0.963586
    13559.322000       0.962141
    13577.732500       0.960674
    13596.193100       0.959185
    13614.703900       0.957675
    13633.265200       0.956144
    13651.877100       0.954593
    13670.540000       0.953021
    13689.253900       0.951431
    13708.019200       0.949821
    13726.836000       0.948192
    13745.704500       0.946546
    13764.624900       0.944881
    13783.597500       0.943199
    13802.622500       0.941500
    13821.700100       0.939785
    13840.830400       0.938053
    13860.013900       0.936306
    13879.250500       0.934544
    13898.540700       0.932767
    13917.884500       0.930975
    13937.282200       0.929170
    13956.734100       0.927351
    13976.240400       0.925520
    13995.801300       0.923675
    14015.417000       0.921819
    14035.087700       0.919951
    14054.813800       0.918072
    14074.595400       0.916182
    14094.432700       0.914282
    14114.326000       0.912372
    14134.275600       0.910453
    14154.281700       0.908525
    14174.344400       0.906588
    14194.464200       0.904643
    14214.641100       0.902691
    14234.875400       0.900731
    14255.167500       0.898765
    14275.517500       0.896793
    14295.925700       0.894815
    14316.392300       0.892831
    14336.917600       0.890843
    14357.501800       0.888850
    14378.145200       0.886854
    14398.848100       0.884853
    14419.610700       0.882850
    14440.433200       0.880844
    14461.316000       0.878835
    14482.259200       0.876825
    14503.263200       0.874814
    14524.328200       0.872801
    14545.454500       0.870789
    14566.642400       0.868776
    14587.892000       0.866763
    14609.203800       0.864751
    14630.577900       0.862741
    14652.014700       0.860732
    14673.514300       0.858725
    14695.077100       0.856721
    14716.703500       0.854719
    14738.393500       0.852721
    14760.147600       0.850727
    14781.966000       0.848736
    14803.849000       0.846751
    14825.796900       0.844770
    14847.809900       0.842794
    14869.888500       0.840824
    14892.032800       0.838860
    14914.243100       0.836903
    14936.519800       0.834952
    14958.863100       0.833009
    14981.273400       0.831073
    15003.750900       0.829145
    15026.296000       0.827225
    15048.909000       0.825314
    15071.590100       0.823412
    15094.339600       0.821519
    15117.158000       0.819636
    15140.045400       0.817764
    15163.002300       0.815901
    15186.028900       0.814049
    15209.125500       0.812208
    15232.292500       0.810379
    15255.530100       0.808561
    15278.838800       0.806755
    15302.218800       0.804961
    15325.670500       0.803180
    15349.194200       0.801412
    15372.790200       0.799657
    15396.458800       0.797915
    15420.200500       0.796187
    15444.015400       0.794472
    15467.904100       0.792772
    15491.866800       0.791087
    15515.903800       0.789416
    15540.015500       0.787760
    15564.202300       0.786119
    15588.464500       0.784494
    15612.802500       0.782884
    15637.216600       0.781290
    15661.707100       0.779712
    15686.274500       0.778150
    15710.919100       0.776605
    15735.641200       0.775076
    15760.441300       0.773564
    15785.319700       0.772069
    15810.276700       0.770591
    15835.312700       0.769131
    15860.428200       0.767687
    15885.623500       0.766262
    15910.899000       0.764853
    15936.255000       0.763463
    15961.691900       0.762091
    15987.210200       0.760737
    16012.810200       0.759400
    16038.492400       0.758082
    16064.257000       0.756783
    16090.104600       0.755502
    16116.035500       0.754239
    16142.050000       0.752994
    16168.148700       0.751768
    16194.332000       0.750561
    16220.600200       0.749373
    16246.953700       0.748203
    16273.393000       0.747051
    16299.918500       0.745919
    16326.530600       0.744805
    16353.229800       0.743709
    16380.016400       0.742633
    16406.890900       0.741575
    16433.853700       0.740535
    16460.905300       0.739514
    16488.046200       0.738512
    16515.276600       0.737527
    16542.597200       0.736562
    16570.008300       0.735614
    16597.510400       0.734685
    16625.103900       0.733773
    16652.789300       0.732880
    16680.567100       0.732004
    16708.437800       0.731146
    16736.401700       0.730306
    16764.459300       0.729483
    16792.611300       0.728677
    16820.857900       0.727889
    16849.199700       0.727117
    16877.637100       0.726362
    16906.170800       0.725623
    16934.801000       0.724901
    16963.528400       0.724195
    16992.353400       0.723505
    17021.276600       0.722830
    17050.298400       0.722171
    17079.419300       0.721527
    17108.639900       0.720898
    17137.960600       0.720283
    17167.382000       0.719683
    17196.904600       0.719097
    17226.528900       0.718524
    17256.255400       0.717965
    17286.084700       0.717419
    17316.017300       0.716886
    17346.053800       0.716366
    17376.194600       0.715857
    17406.440400       0.715360
    17436.791600       0.714875
    17467.248900       0.714400
    17497.812800       0.713936
    17528.483800       0.713483
    17559.262500       0.713039
    17590.149500       0.712605
    17621.145400       0.712179
    17652.250700       0.711762
    17683.466000       0.711354
    17714.791900       0.710953
    17746.228900       0.710559
    17777.777800       0.710172
    17809.439000       0.709791
    17841.213200       0.709416
    17873.101000       0.709047
    17905.103000       0.708682
    17937.219700       0.708321
    17969.451900       0.707964
    18001.800200       0.707611
    18034.265100       0.707260
    18066.847300       0.706912
    18099.547500       0.706565
    18132.366300       0.706219
    18165.304300       0.705873
    18198.362100       0.705528
    18231.540600       0.705182
    18264.840200       0.704835
    18298.261700       0.704486
    18331.805700       0.704134
    18365.472900       0.703780
    18399.264000       0.703421
    18433.179700       0.703059
    18467.220700       0.702692
    18501.387600       0.702319
    18535.681200       0.701940
    18570.102100       0.701554
    18604.651200       0.701160
    18639.329000       0.700759
    18674.136300       0.700349
    18709.073900       0.699929
    18744.142500       0.699499
    18779.342700       0.699058
    18814.675400       0.698606
    18850.141400       0.698141
    18885.741300       0.697664
    18921.475900       0.697172
    18957.346000       0.696667
    18993.352300       0.696146
    19029.495700       0.695610
    19065.776900       0.695057
    19102.196800       0.694487
    19138.756000       0.693899
    19175.455400       0.693292
    19212.295900       0.692666
    19249.278200       0.692020
    19286.403100       0.691353
    19323.671500       0.690664
    19361.084200       0.689953
    19398.642100       0.689218
    19436.346000       0.688460
    19474.196700       0.687677
    19512.195100       0.686868
    19550.342100       0.686034
    19588.638600       0.685172
    19627.085400       0.684283
    19665.683400       0.683366
    19704.433500       0.682419
    19743.336600       0.681442
    19782.393700       0.680435
    19821.605600       0.679396
    19860.973200       0.678325
    19900.497500       0.677221
    19940.179500       0.676083
    19980.020000       0.674911
    20020.020000       0.673704
    20060.180500       0.672460
    20100.502500       0.671180
    20140.986900       0.669863
    20181.634700       0.668507
    20222.446900       0.667113
    20263.424500       0.665678
    20304.568500       0.664204
    20345.880000       0.662688
    20387.359800       0.661131
    20429.009200       0.659531
    20470.829100       0.657888
    20512.820500       0.656200
    20554.984600       0.654469
    20597.322300       0.652692
    20639.834900       0.650869
    20682.523300       0.648999
    20725.388600       0.647083
    20768.432000       0.645118
    20811.654500       0.643104
    20855.057400       0.641042
    20898.641600       0.638930
    20942.408400       0.636767
    20986.358900       0.634553
    21030.494200       0.632287
    21074.815600       0.629969
    21119.324200       0.627599
    21164.021200       0.625175
    21208.907700       0.622697
    21253.985100       0.620165
    21299.254500       0.617578
    21344.717200       0.614935
    21390.374300       0.612236
    21436.227200       0.609482
    21482.277100       0.606670
    21528.525300       0.603800
    21574.973000       0.600873
    21621.621600       0.597888
    21668.472400       0.594845
    21715.526600       0.591742
    21762.785600       0.588580
    21810.250800       0.585359
    21857.923500       0.582077
    21905.805000       0.578736
    21953.896800       0.575333
    22002.200200       0.571870
    22050.716600       0.568347
    22099.447500       0.564761
    22148.394200       0.561115
    22197.558300       0.557407
    22246.941000       0.553637
    22296.544000       0.549805
    22346.368700       0.545912
    22396.416600       0.541956
    22446.689100       0.537939
    22497.187900       0.533859
    22547.914300       0.529718
    22598.870100       0.525514
    22650.056600       0.521248
    22701.475600       0.516921
    22753.128600       0.512532
    22805.017100       0.508082
    22857.142900       0.503570
    22909.507400       0.498997
    22962.112500       0.494363
    23014.959700       0.489669
    23068.050700       0.484915
    23121.387300       0.480100
    23174.971000       0.475226
    23228.803700       0.470294
    23282.887100       0.465302
    23337.222900       0.460253
    23391.812900       0.455146
    23446.658900       0.449982
    23501.762600       0.444762
    23557.126000       0.439486
    23612.750900       0.434156
    23668.639100       0.428771
    23724.792400       0.423332
    23781.212800       0.417842
    23837.902300       0.412299
    23894.862600       0.406706
    23952.095800       0.401063
    24009.603800       0.395371
    24067.388700       0.389632
    24125.452400       0.383846
    24183.796900       0.378014
    24242.424200       0.372138
    24301.336600       0.366220
    24360.535900       0.360259
    24420.024400       0.354259
    24479.804200       0.348220
    24539.877300       0.342143
    24600.246000       0.336030
    24660.912500       0.329884
    24721.878900       0.323704
    24783.147500       0.317494
    24844.720500       0.311254
    24906.600200       0.304987
    24968.789000       0.298695
    25031.289100       0.292380
    25094.102900       0.286042
    25157.232700       0.279686
    25220.681000       0.273312
    25284.450100       0.266923
    25348.542500       0.260521
    25412.960600       0.254109
    25477.707000       0.247689
