9, GOES-R 6.95um ABI SRF CWG processed version 3 March 10, 2016
Number of data points:
1913
Wavenumber (cm-1)   Filter response
     1351.300000       0.001007
     1351.400000       0.001078
     1351.500000       0.001147
     1351.600000       0.001219
     1351.700000       0.001294
     1351.800000       0.001365
     1351.900000       0.001430
     1352.000000       0.001478
     1352.100000       0.001498
     1352.200000       0.001492
     1352.300000       0.001485
     1352.400000       0.001479
     1352.500000       0.001474
     1352.600000       0.001468
     1352.700000       0.001462
     1352.800000       0.001457
     1352.900000       0.001450
     1353.000000       0.001445
     1353.100000       0.001456
     1353.200000       0.001471
     1353.300000       0.001485
     1353.400000       0.001495
     1353.500000       0.001501
     1353.600000       0.001510
     1353.700000       0.001524
     1353.800000       0.001537
     1353.900000       0.001550
     1354.000000       0.001557
     1354.100000       0.001563
     1354.200000       0.001571
     1354.300000       0.001575
     1354.400000       0.001576
     1354.500000       0.001576
     1354.600000       0.001576
     1354.700000       0.001579
     1354.800000       0.001587
     1354.900000       0.001588
     1355.000000       0.001588
     1355.100000       0.001608
     1355.200000       0.001646
     1355.300000       0.001677
     1355.400000       0.001709
     1355.500000       0.001739
     1355.600000       0.001771
     1355.700000       0.001802
     1355.800000       0.001832
     1355.900000       0.001863
     1356.000000       0.001901
     1356.100000       0.001946
     1356.200000       0.002000
     1356.300000       0.002056
     1356.400000       0.002107
     1356.500000       0.002155
     1356.600000       0.002198
     1356.700000       0.002244
     1356.800000       0.002296
     1356.900000       0.002331
     1357.000000       0.002351
     1357.100000       0.002313
     1357.200000       0.002174
     1357.300000       0.002066
     1357.400000       0.001961
     1357.500000       0.001850
     1357.600000       0.001739
     1357.700000       0.001629
     1357.800000       0.001512
     1357.900000       0.001366
     1358.000000       0.001342
     1358.100000       0.001427
     1358.200000       0.001535
     1358.300000       0.001671
     1358.400000       0.001801
     1358.500000       0.001930
     1358.600000       0.002059
     1358.700000       0.002189
     1358.800000       0.002336
     1358.900000       0.002450
     1359.000000       0.002535
     1359.100000       0.002552
     1359.200000       0.002491
     1359.300000       0.002428
     1359.400000       0.002373
     1359.500000       0.002318
     1359.600000       0.002263
     1359.700000       0.002213
     1359.800000       0.002164
     1359.900000       0.002102
     1360.000000       0.002058
     1360.100000       0.002045
     1360.200000       0.002034
     1360.300000       0.002022
     1360.400000       0.002009
     1360.500000       0.001997
     1360.600000       0.001985
     1360.700000       0.001973
     1360.800000       0.001958
     1360.900000       0.001947
     1361.000000       0.001971
     1361.100000       0.002026
     1361.200000       0.002112
     1361.300000       0.002211
     1361.400000       0.002304
     1361.500000       0.002394
     1361.600000       0.002479
     1361.700000       0.002569
     1361.800000       0.002663
     1361.900000       0.002744
     1362.000000       0.002808
     1362.100000       0.002767
     1362.200000       0.002643
     1362.300000       0.002539
     1362.400000       0.002435
     1362.500000       0.002337
     1362.600000       0.002238
     1362.700000       0.002134
     1362.800000       0.002026
     1362.900000       0.001905
     1363.000000       0.001837
     1363.100000       0.001801
     1363.200000       0.001772
     1363.300000       0.001748
     1363.400000       0.001728
     1363.500000       0.001711
     1363.600000       0.001692
     1363.700000       0.001674
     1363.800000       0.001651
     1363.900000       0.001641
     1364.000000       0.001657
     1364.100000       0.001691
     1364.200000       0.001788
     1364.300000       0.001883
     1364.400000       0.001968
     1364.500000       0.002057
     1364.600000       0.002150
     1364.700000       0.002242
     1364.800000       0.002334
     1364.900000       0.002438
     1365.000000       0.002506
     1365.100000       0.002506
     1365.200000       0.002506
     1365.300000       0.002506
     1365.400000       0.002505
     1365.500000       0.002505
     1365.600000       0.002505
     1365.700000       0.002505
     1365.800000       0.002505
     1365.900000       0.002505
     1366.000000       0.002534
     1366.100000       0.002633
     1366.200000       0.002749
     1366.300000       0.002882
     1366.400000       0.003011
     1366.500000       0.003138
     1366.600000       0.003259
     1366.700000       0.003381
     1366.800000       0.003505
     1366.900000       0.003619
     1367.000000       0.003722
     1367.100000       0.003788
     1367.200000       0.003829
     1367.300000       0.003866
     1367.400000       0.003902
     1367.500000       0.003938
     1367.600000       0.003974
     1367.700000       0.004009
     1367.800000       0.004045
     1367.900000       0.004089
     1368.000000       0.004111
     1368.100000       0.004088
     1368.200000       0.004058
     1368.300000       0.004032
     1368.400000       0.004007
     1368.500000       0.003981
     1368.600000       0.003953
     1368.700000       0.003920
     1368.800000       0.003893
     1368.900000       0.003868
     1369.000000       0.003830
     1369.100000       0.003776
     1369.200000       0.003596
     1369.300000       0.003436
     1369.400000       0.003910
     1369.500000       0.004587
     1369.600000       0.005005
     1369.700000       0.005382
     1369.800000       0.005766
     1369.900000       0.005855
     1370.000000       0.005742
     1370.100000       0.005780
     1370.200000       0.006143
     1370.300000       0.006485
     1370.400000       0.006786
     1370.500000       0.007129
     1370.600000       0.007497
     1370.700000       0.007879
     1370.800000       0.008268
     1370.900000       0.008661
     1371.000000       0.009040
     1371.100000       0.009422
     1371.200000       0.009595
     1371.300000       0.009581
     1371.400000       0.009545
     1371.500000       0.009415
     1371.600000       0.009286
     1371.700000       0.009166
     1371.800000       0.009045
     1371.900000       0.008921
     1372.000000       0.008786
     1372.100000       0.008644
     1372.200000       0.008503
     1372.300000       0.008362
     1372.400000       0.008224
     1372.500000       0.008080
     1372.600000       0.007906
     1372.700000       0.007713
     1372.800000       0.007480
     1372.900000       0.007243
     1373.000000       0.007010
     1373.100000       0.006774
     1373.200000       0.006533
     1373.300000       0.006376
     1373.400000       0.006272
     1373.500000       0.006222
     1373.600000       0.006192
     1373.700000       0.006154
     1373.800000       0.006123
     1373.900000       0.006123
     1374.000000       0.006125
     1374.100000       0.006277
     1374.200000       0.006544
     1374.300000       0.006809
     1374.400000       0.007083
     1374.500000       0.007352
     1374.600000       0.007620
     1374.700000       0.007884
     1374.800000       0.008134
     1374.900000       0.008368
     1375.000000       0.008602
     1375.100000       0.008836
     1375.200000       0.009077
     1375.300000       0.009313
     1375.400000       0.009490
     1375.500000       0.009624
     1375.600000       0.009672
     1375.700000       0.009706
     1375.800000       0.009738
     1375.900000       0.009772
     1376.000000       0.009826
     1376.100000       0.009917
     1376.200000       0.010290
     1376.300000       0.010780
     1376.400000       0.011376
     1376.500000       0.011978
     1376.600000       0.012567
     1376.700000       0.013173
     1376.800000       0.013775
     1376.900000       0.014201
     1377.000000       0.014492
     1377.100000       0.014789
     1377.200000       0.015089
     1377.300000       0.015385
     1377.400000       0.015688
     1377.500000       0.016054
     1377.600000       0.016467
     1377.700000       0.017036
     1377.800000       0.017648
     1377.900000       0.018257
     1378.000000       0.018868
     1378.100000       0.019490
     1378.200000       0.020050
     1378.300000       0.020530
     1378.400000       0.020928
     1378.500000       0.021247
     1378.600000       0.021567
     1378.700000       0.021892
     1378.800000       0.022204
     1378.900000       0.022521
     1379.000000       0.022980
     1379.100000       0.023525
     1379.200000       0.024095
     1379.300000       0.024676
     1379.400000       0.025250
     1379.500000       0.025796
     1379.600000       0.026242
     1379.700000       0.026640
     1379.800000       0.026961
     1379.900000       0.027264
     1380.000000       0.027552
     1380.100000       0.027838
     1380.200000       0.028125
     1380.300000       0.028413
     1380.400000       0.028701
     1380.500000       0.028987
     1380.600000       0.029273
     1380.700000       0.029556
     1380.800000       0.029837
     1380.900000       0.030197
     1381.000000       0.030628
     1381.100000       0.031102
     1381.200000       0.031614
     1381.300000       0.032115
     1381.400000       0.032612
     1381.500000       0.033109
     1381.600000       0.033605
     1381.700000       0.034098
     1381.800000       0.034591
     1381.900000       0.035085
     1382.000000       0.035578
     1382.100000       0.036069
     1382.200000       0.036560
     1382.300000       0.037051
     1382.400000       0.037542
     1382.500000       0.038035
     1382.600000       0.038530
     1382.700000       0.039025
     1382.800000       0.039520
     1382.900000       0.040012
     1383.000000       0.040505
     1383.100000       0.040996
     1383.200000       0.041479
     1383.300000       0.041955
     1383.400000       0.042413
     1383.500000       0.042865
     1383.600000       0.043316
     1383.700000       0.043767
     1383.800000       0.044220
     1383.900000       0.044672
     1384.000000       0.045124
     1384.100000       0.045576
     1384.200000       0.046007
     1384.300000       0.046525
     1384.400000       0.047268
     1384.500000       0.048119
     1384.600000       0.049114
     1384.700000       0.050134
     1384.800000       0.051157
     1384.900000       0.052196
     1385.000000       0.053252
     1385.100000       0.054308
     1385.200000       0.055366
     1385.300000       0.056425
     1385.400000       0.057489
     1385.500000       0.058603
     1385.600000       0.059761
     1385.700000       0.060955
     1385.800000       0.062162
     1385.900000       0.063364
     1386.000000       0.064564
     1386.100000       0.065762
     1386.200000       0.066959
     1386.300000       0.068159
     1386.400000       0.069349
     1386.500000       0.070518
     1386.600000       0.071658
     1386.700000       0.072746
     1386.800000       0.073812
     1386.900000       0.074850
     1387.000000       0.075887
     1387.100000       0.076921
     1387.200000       0.077959
     1387.300000       0.078999
     1387.400000       0.080036
     1387.500000       0.081070
     1387.600000       0.082111
     1387.700000       0.083162
     1387.800000       0.084259
     1387.900000       0.085379
     1388.000000       0.086497
     1388.100000       0.087615
     1388.200000       0.088733
     1388.300000       0.089850
     1388.400000       0.090966
     1388.500000       0.092082
     1388.600000       0.093174
     1388.700000       0.094317
     1388.800000       0.095697
     1388.900000       0.097187
     1389.000000       0.098857
     1389.100000       0.100577
     1389.200000       0.102334
     1389.300000       0.104095
     1389.400000       0.105851
     1389.500000       0.107604
     1389.600000       0.109353
     1389.700000       0.111124
     1389.800000       0.112922
     1389.900000       0.114791
     1390.000000       0.116780
     1390.100000       0.118891
     1390.200000       0.121115
     1390.300000       0.123327
     1390.400000       0.125531
     1390.500000       0.127732
     1390.600000       0.129931
     1390.700000       0.132131
     1390.800000       0.134333
     1390.900000       0.136507
     1391.000000       0.138718
     1391.100000       0.141285
     1391.200000       0.144001
     1391.300000       0.146716
     1391.400000       0.149452
     1391.500000       0.152226
     1391.600000       0.155017
     1391.700000       0.157829
     1391.800000       0.160648
     1391.900000       0.163459
     1392.000000       0.166305
     1392.100000       0.169242
     1392.200000       0.172263
     1392.300000       0.175368
     1392.400000       0.178497
     1392.500000       0.181637
     1392.600000       0.184784
     1392.700000       0.187934
     1392.800000       0.191084
     1392.900000       0.194230
     1393.000000       0.197408
     1393.100000       0.200620
     1393.200000       0.203938
     1393.300000       0.207359
     1393.400000       0.210870
     1393.500000       0.214457
     1393.600000       0.218034
     1393.700000       0.221607
     1393.800000       0.225177
     1393.900000       0.228745
     1394.000000       0.232312
     1394.100000       0.235886
     1394.200000       0.239497
     1394.300000       0.243166
     1394.400000       0.247064
     1394.500000       0.251018
     1394.600000       0.254961
     1394.700000       0.258906
     1394.800000       0.262839
     1394.900000       0.266774
     1395.000000       0.270721
     1395.100000       0.274666
     1395.200000       0.278569
     1395.300000       0.282607
     1395.400000       0.287016
     1395.500000       0.291505
     1395.600000       0.296056
     1395.700000       0.300541
     1395.800000       0.304893
     1395.900000       0.309197
     1396.000000       0.313446
     1396.100000       0.317675
     1396.200000       0.321885
     1396.300000       0.326126
     1396.400000       0.330407
     1396.500000       0.334734
     1396.600000       0.339126
     1396.700000       0.343534
     1396.800000       0.347943
     1396.900000       0.352360
     1397.000000       0.356775
     1397.100000       0.361187
     1397.200000       0.365594
     1397.300000       0.369984
     1397.400000       0.374378
     1397.500000       0.378907
     1397.600000       0.383542
     1397.700000       0.388401
     1397.800000       0.393386
     1397.900000       0.398386
     1398.000000       0.403403
     1398.100000       0.408415
     1398.200000       0.413431
     1398.300000       0.418452
     1398.400000       0.423476
     1398.500000       0.428508
     1398.600000       0.433548
     1398.700000       0.438613
     1398.800000       0.443699
     1398.900000       0.448821
     1399.000000       0.453950
     1399.100000       0.459077
     1399.200000       0.464205
     1399.300000       0.469331
     1399.400000       0.474457
     1399.500000       0.479579
     1399.600000       0.484696
     1399.700000       0.489807
     1399.800000       0.494890
     1399.900000       0.499922
     1400.000000       0.504917
     1400.100000       0.509865
     1400.200000       0.514800
     1400.300000       0.519719
     1400.400000       0.524643
     1400.500000       0.529574
     1400.600000       0.534507
     1400.700000       0.539440
     1400.800000       0.544380
     1400.900000       0.549338
     1401.000000       0.554391
     1401.100000       0.559503
     1401.200000       0.564647
     1401.300000       0.569821
     1401.400000       0.575003
     1401.500000       0.580191
     1401.600000       0.585377
     1401.700000       0.590568
     1401.800000       0.595767
     1401.900000       0.600971
     1402.000000       0.606179
     1402.100000       0.611394
     1402.200000       0.616660
     1402.300000       0.621964
     1402.400000       0.627331
     1402.500000       0.632736
     1402.600000       0.638130
     1402.700000       0.643522
     1402.800000       0.648910
     1402.900000       0.654297
     1403.000000       0.659687
     1403.100000       0.665072
     1403.200000       0.670434
     1403.300000       0.675768
     1403.400000       0.681026
     1403.500000       0.686184
     1403.600000       0.690956
     1403.700000       0.695621
     1403.800000       0.700331
     1403.900000       0.705052
     1404.000000       0.709798
     1404.100000       0.714555
     1404.200000       0.719336
     1404.300000       0.724128
     1404.400000       0.728948
     1404.500000       0.733752
     1404.600000       0.738522
     1404.700000       0.743159
     1404.800000       0.747444
     1404.900000       0.751688
     1405.000000       0.756002
     1405.100000       0.760323
     1405.200000       0.764636
     1405.300000       0.768945
     1405.400000       0.773226
     1405.500000       0.777482
     1405.600000       0.781714
     1405.700000       0.785888
     1405.800000       0.789965
     1405.900000       0.793994
     1406.000000       0.797942
     1406.100000       0.801886
     1406.200000       0.805823
     1406.300000       0.809755
     1406.400000       0.813689
     1406.500000       0.817624
     1406.600000       0.821559
     1406.700000       0.825485
     1406.800000       0.829403
     1406.900000       0.833235
     1407.000000       0.836950
     1407.100000       0.840569
     1407.200000       0.844072
     1407.300000       0.847482
     1407.400000       0.850781
     1407.500000       0.854022
     1407.600000       0.857172
     1407.700000       0.860291
     1407.800000       0.863398
     1407.900000       0.866507
     1408.000000       0.869623
     1408.100000       0.872605
     1408.200000       0.875449
     1408.300000       0.878141
     1408.400000       0.880667
     1408.500000       0.883070
     1408.600000       0.885404
     1408.700000       0.887735
     1408.800000       0.890063
     1408.900000       0.892387
     1409.000000       0.894708
     1409.100000       0.897035
     1409.200000       0.899365
     1409.300000       0.901630
     1409.400000       0.903833
     1409.500000       0.905844
     1409.600000       0.907698
     1409.700000       0.909367
     1409.800000       0.910847
     1409.900000       0.912311
     1410.000000       0.913761
     1410.100000       0.915253
     1410.200000       0.916757
     1410.300000       0.918263
     1410.400000       0.919773
     1410.500000       0.921284
     1410.600000       0.922789
     1410.700000       0.924219
     1410.800000       0.925597
     1410.900000       0.926783
     1411.000000       0.927854
     1411.100000       0.928953
     1411.200000       0.930067
     1411.300000       0.931191
     1411.400000       0.932325
     1411.500000       0.933468
     1411.600000       0.934627
     1411.700000       0.935810
     1411.800000       0.937008
     1411.900000       0.938213
     1412.000000       0.939395
     1412.100000       0.940476
     1412.200000       0.941515
     1412.300000       0.942520
     1412.400000       0.943517
     1412.500000       0.944513
     1412.600000       0.945506
     1412.700000       0.946491
     1412.800000       0.947472
     1412.900000       0.948462
     1413.000000       0.949453
     1413.100000       0.950436
     1413.200000       0.951413
     1413.300000       0.952402
     1413.400000       0.953393
     1413.500000       0.954379
     1413.600000       0.955365
     1413.700000       0.956360
     1413.800000       0.957359
     1413.900000       0.958367
     1414.000000       0.959381
     1414.100000       0.960403
     1414.200000       0.961452
     1414.300000       0.962533
     1414.400000       0.963617
     1414.500000       0.964611
     1414.600000       0.965564
     1414.700000       0.966412
     1414.800000       0.967215
     1414.900000       0.967965
     1415.000000       0.968673
     1415.100000       0.969430
     1415.200000       0.970187
     1415.300000       0.970933
     1415.400000       0.971676
     1415.500000       0.972427
     1415.600000       0.973178
     1415.700000       0.973869
     1415.800000       0.974520
     1415.900000       0.975072
     1416.000000       0.975555
     1416.100000       0.976053
     1416.200000       0.976536
     1416.300000       0.977037
     1416.400000       0.977602
     1416.500000       0.978203
     1416.600000       0.978827
     1416.700000       0.979466
     1416.800000       0.980117
     1416.900000       0.980761
     1417.000000       0.981400
     1417.100000       0.982013
     1417.200000       0.982605
     1417.300000       0.983158
     1417.400000       0.983671
     1417.500000       0.984159
     1417.600000       0.984641
     1417.700000       0.985109
     1417.800000       0.985566
     1417.900000       0.986000
     1418.000000       0.986416
     1418.100000       0.986813
     1418.200000       0.987196
     1418.300000       0.987577
     1418.400000       0.987958
     1418.500000       0.988351
     1418.600000       0.988752
     1418.700000       0.989142
     1418.800000       0.989526
     1418.900000       0.989915
     1419.000000       0.990312
     1419.100000       0.990720
     1419.200000       0.991142
     1419.300000       0.991575
     1419.400000       0.992009
     1419.500000       0.992438
     1419.600000       0.992859
     1419.700000       0.993216
     1419.800000       0.993502
     1419.900000       0.993830
     1420.000000       0.994176
     1420.100000       0.994522
     1420.200000       0.994867
     1420.300000       0.995213
     1420.400000       0.995560
     1420.500000       0.995905
     1420.600000       0.996248
     1420.700000       0.996608
     1420.800000       0.996984
     1420.900000       0.997275
     1421.000000       0.997480
     1421.100000       0.997690
     1421.200000       0.997910
     1421.300000       0.998135
     1421.400000       0.998366
     1421.500000       0.998600
     1421.600000       0.998838
     1421.700000       0.999078
     1421.800000       0.999320
     1421.900000       0.999573
     1422.000000       0.999876
     1422.100000       1.000000
     1422.200000       1.000000
     1422.300000       0.999985
     1422.400000       0.999927
     1422.500000       0.999868
     1422.600000       0.999807
     1422.700000       0.999748
     1422.800000       0.999700
     1422.900000       0.999655
     1423.000000       0.999613
     1423.100000       0.999574
     1423.200000       0.999519
     1423.300000       0.999422
     1423.400000       0.999185
     1423.500000       0.998893
     1423.600000       0.998582
     1423.700000       0.998228
     1423.800000       0.997739
     1423.900000       0.997244
     1424.000000       0.996829
     1424.100000       0.996401
     1424.200000       0.995876
     1424.300000       0.995332
     1424.400000       0.994775
     1424.500000       0.994223
     1424.600000       0.993739
     1424.700000       0.993289
     1424.800000       0.992912
     1424.900000       0.992564
     1425.000000       0.992267
     1425.100000       0.991983
     1425.200000       0.991701
     1425.300000       0.991417
     1425.400000       0.991133
     1425.500000       0.990847
     1425.600000       0.990562
     1425.700000       0.990281
     1425.800000       0.990004
     1425.900000       0.989732
     1426.000000       0.989469
     1426.100000       0.989214
     1426.200000       0.988968
     1426.300000       0.988731
     1426.400000       0.988504
     1426.500000       0.988288
     1426.600000       0.988092
     1426.700000       0.987913
     1426.800000       0.987792
     1426.900000       0.987725
     1427.000000       0.987631
     1427.100000       0.987530
     1427.200000       0.987422
     1427.300000       0.987298
     1427.400000       0.987157
     1427.500000       0.987008
     1427.600000       0.986858
     1427.700000       0.986708
     1427.800000       0.986555
     1427.900000       0.986398
     1428.000000       0.986239
     1428.100000       0.986078
     1428.200000       0.985900
     1428.300000       0.985700
     1428.400000       0.985456
     1428.500000       0.985129
     1428.600000       0.984735
     1428.700000       0.984193
     1428.800000       0.983612
     1428.900000       0.983046
     1429.000000       0.982452
     1429.100000       0.981815
     1429.200000       0.981154
     1429.300000       0.980455
     1429.400000       0.979737
     1429.500000       0.978988
     1429.600000       0.978266
     1429.700000       0.977595
     1429.800000       0.976987
     1429.900000       0.976521
     1430.000000       0.976080
     1430.100000       0.975661
     1430.200000       0.975253
     1430.300000       0.974863
     1430.400000       0.974486
     1430.500000       0.974140
     1430.600000       0.973816
     1430.700000       0.973531
     1430.800000       0.973279
     1430.900000       0.973081
     1431.000000       0.972914
     1431.100000       0.972811
     1431.200000       0.972722
     1431.300000       0.972655
     1431.400000       0.972605
     1431.500000       0.972563
     1431.600000       0.972530
     1431.700000       0.972529
     1431.800000       0.972589
     1431.900000       0.972620
     1432.000000       0.972653
     1432.100000       0.972704
     1432.200000       0.972779
     1432.300000       0.972876
     1432.400000       0.973002
     1432.500000       0.973138
     1432.600000       0.973283
     1432.700000       0.973430
     1432.800000       0.973577
     1432.900000       0.973723
     1433.000000       0.973872
     1433.100000       0.974019
     1433.200000       0.974166
     1433.300000       0.974310
     1433.400000       0.974443
     1433.500000       0.974557
     1433.600000       0.974637
     1433.700000       0.974690
     1433.800000       0.974694
     1433.900000       0.974695
     1434.000000       0.974668
     1434.100000       0.974632
     1434.200000       0.974583
     1434.300000       0.974528
     1434.400000       0.974462
     1434.500000       0.974390
     1434.600000       0.974308
     1434.700000       0.974213
     1434.800000       0.974074
     1434.900000       0.973907
     1435.000000       0.973680
     1435.100000       0.973420
     1435.200000       0.973141
     1435.300000       0.972846
     1435.400000       0.972536
     1435.500000       0.972214
     1435.600000       0.971886
     1435.700000       0.971555
     1435.800000       0.971217
     1435.900000       0.970870
     1436.000000       0.970512
     1436.100000       0.970134
     1436.200000       0.969716
     1436.300000       0.969253
     1436.400000       0.968802
     1436.500000       0.968374
     1436.600000       0.967965
     1436.700000       0.967573
     1436.800000       0.967186
     1436.900000       0.966803
     1437.000000       0.966424
     1437.100000       0.966050
     1437.200000       0.965678
     1437.300000       0.965311
     1437.400000       0.964949
     1437.500000       0.964602
     1437.600000       0.964259
     1437.700000       0.963916
     1437.800000       0.963575
     1437.900000       0.963236
     1438.000000       0.962896
     1438.100000       0.962554
     1438.200000       0.962208
     1438.300000       0.961857
     1438.400000       0.961503
     1438.500000       0.961145
     1438.600000       0.960788
     1438.700000       0.960443
     1438.800000       0.960109
     1438.900000       0.959768
     1439.000000       0.959420
     1439.100000       0.959070
     1439.200000       0.958718
     1439.300000       0.958365
     1439.400000       0.958011
     1439.500000       0.957658
     1439.600000       0.957307
     1439.700000       0.956955
     1439.800000       0.956601
     1439.900000       0.956236
     1440.000000       0.955824
     1440.100000       0.955406
     1440.200000       0.954992
     1440.300000       0.954580
     1440.400000       0.954175
     1440.500000       0.953778
     1440.600000       0.953399
     1440.700000       0.953026
     1440.800000       0.952664
     1440.900000       0.952302
     1441.000000       0.951910
     1441.100000       0.951490
     1441.200000       0.950942
     1441.300000       0.950283
     1441.400000       0.949585
     1441.500000       0.948848
     1441.600000       0.948126
     1441.700000       0.947415
     1441.800000       0.946734
     1441.900000       0.946084
     1442.000000       0.945448
     1442.100000       0.944829
     1442.200000       0.944238
     1442.300000       0.943703
     1442.400000       0.943207
     1442.500000       0.942839
     1442.600000       0.942588
     1442.700000       0.942500
     1442.800000       0.942517
     1442.900000       0.942595
     1443.000000       0.942706
     1443.100000       0.942860
     1443.200000       0.943032
     1443.300000       0.943224
     1443.400000       0.943424
     1443.500000       0.943628
     1443.600000       0.943836
     1443.700000       0.944078
     1443.800000       0.944327
     1443.900000       0.944614
     1444.000000       0.944873
     1444.100000       0.945039
     1444.200000       0.945131
     1444.300000       0.945121
     1444.400000       0.945030
     1444.500000       0.944930
     1444.600000       0.944828
     1444.700000       0.944725
     1444.800000       0.944620
     1444.900000       0.944516
     1445.000000       0.944411
     1445.100000       0.944304
     1445.200000       0.944194
     1445.300000       0.944079
     1445.400000       0.943945
     1445.500000       0.943804
     1445.600000       0.943650
     1445.700000       0.943490
     1445.800000       0.943321
     1445.900000       0.943147
     1446.000000       0.942974
     1446.100000       0.942802
     1446.200000       0.942640
     1446.300000       0.942473
     1446.400000       0.942298
     1446.500000       0.942090
     1446.600000       0.941837
     1446.700000       0.941533
     1446.800000       0.941185
     1446.900000       0.940806
     1447.000000       0.940408
     1447.100000       0.939993
     1447.200000       0.939570
     1447.300000       0.939141
     1447.400000       0.938719
     1447.500000       0.938319
     1447.600000       0.937941
     1447.700000       0.937636
     1447.800000       0.937368
     1447.900000       0.937156
     1448.000000       0.936982
     1448.100000       0.936878
     1448.200000       0.936847
     1448.300000       0.936877
     1448.400000       0.936954
     1448.500000       0.937079
     1448.600000       0.937250
     1448.700000       0.937473
     1448.800000       0.937756
     1448.900000       0.938097
     1449.000000       0.938540
     1449.100000       0.939008
     1449.200000       0.939484
     1449.300000       0.939970
     1449.400000       0.940461
     1449.500000       0.940945
     1449.600000       0.941410
     1449.700000       0.941860
     1449.800000       0.942291
     1449.900000       0.942676
     1450.000000       0.942957
     1450.100000       0.943140
     1450.200000       0.943156
     1450.300000       0.943158
     1450.400000       0.943134
     1450.500000       0.943078
     1450.600000       0.943004
     1450.700000       0.942907
     1450.800000       0.942773
     1450.900000       0.942592
     1451.000000       0.942409
     1451.100000       0.942226
     1451.200000       0.942065
     1451.300000       0.941920
     1451.400000       0.941816
     1451.500000       0.941793
     1451.600000       0.941768
     1451.700000       0.941709
     1451.800000       0.941646
     1451.900000       0.941569
     1452.000000       0.941484
     1452.100000       0.941377
     1452.200000       0.941241
     1452.300000       0.941065
     1452.400000       0.940866
     1452.500000       0.940669
     1452.600000       0.940470
     1452.700000       0.940274
     1452.800000       0.940094
     1452.900000       0.939918
     1453.000000       0.939754
     1453.100000       0.939593
     1453.200000       0.939435
     1453.300000       0.939286
     1453.400000       0.939153
     1453.500000       0.939040
     1453.600000       0.938962
     1453.700000       0.938890
     1453.800000       0.938827
     1453.900000       0.938771
     1454.000000       0.938722
     1454.100000       0.938690
     1454.200000       0.938658
     1454.300000       0.938628
     1454.400000       0.938621
     1454.500000       0.938620
     1454.600000       0.938644
     1454.700000       0.938724
     1454.800000       0.938771
     1454.900000       0.938806
     1455.000000       0.938833
     1455.100000       0.938842
     1455.200000       0.938842
     1455.300000       0.938809
     1455.400000       0.938762
     1455.500000       0.938696
     1455.600000       0.938613
     1455.700000       0.938482
     1455.800000       0.938340
     1455.900000       0.938179
     1456.000000       0.938000
     1456.100000       0.937807
     1456.200000       0.937607
     1456.300000       0.937405
     1456.400000       0.937203
     1456.500000       0.937009
     1456.600000       0.936822
     1456.700000       0.936639
     1456.800000       0.936461
     1456.900000       0.936284
     1457.000000       0.936108
     1457.100000       0.935934
     1457.200000       0.935766
     1457.300000       0.935602
     1457.400000       0.935438
     1457.500000       0.935297
     1457.600000       0.935218
     1457.700000       0.935168
     1457.800000       0.935252
     1457.900000       0.935467
     1458.000000       0.935736
     1458.100000       0.936036
     1458.200000       0.936374
     1458.300000       0.936714
     1458.400000       0.937056
     1458.500000       0.937399
     1458.600000       0.937741
     1458.700000       0.938084
     1458.800000       0.938417
     1458.900000       0.938751
     1459.000000       0.939027
     1459.100000       0.939163
     1459.200000       0.939273
     1459.300000       0.939362
     1459.400000       0.939440
     1459.500000       0.939519
     1459.600000       0.939598
     1459.700000       0.939681
     1459.800000       0.939762
     1459.900000       0.939839
     1460.000000       0.939919
     1460.100000       0.940009
     1460.200000       0.940075
     1460.300000       0.940063
     1460.400000       0.939792
     1460.500000       0.939466
     1460.600000       0.939189
     1460.700000       0.938917
     1460.800000       0.938653
     1460.900000       0.938394
     1461.000000       0.938144
     1461.100000       0.937902
     1461.200000       0.937671
     1461.300000       0.937451
     1461.400000       0.937246
     1461.500000       0.937056
     1461.600000       0.936948
     1461.700000       0.936927
     1461.800000       0.936941
     1461.900000       0.936983
     1462.000000       0.937042
     1462.100000       0.937169
     1462.200000       0.937304
     1462.300000       0.937409
     1462.400000       0.937520
     1462.500000       0.937631
     1462.600000       0.937738
     1462.700000       0.937868
     1462.800000       0.938009
     1462.900000       0.938177
     1463.000000       0.938402
     1463.100000       0.938626
     1463.200000       0.938849
     1463.300000       0.939057
     1463.400000       0.939242
     1463.500000       0.939411
     1463.600000       0.939555
     1463.700000       0.939688
     1463.800000       0.939820
     1463.900000       0.939961
     1464.000000       0.940154
     1464.100000       0.940384
     1464.200000       0.940669
     1464.300000       0.941006
     1464.400000       0.941365
     1464.500000       0.941750
     1464.600000       0.942132
     1464.700000       0.942524
     1464.800000       0.942925
     1464.900000       0.943323
     1465.000000       0.943718
     1465.100000       0.944124
     1465.200000       0.944492
     1465.300000       0.944756
     1465.400000       0.944963
     1465.500000       0.945067
     1465.600000       0.945103
     1465.700000       0.945067
     1465.800000       0.944996
     1465.900000       0.944917
     1466.000000       0.944830
     1466.100000       0.944735
     1466.200000       0.944630
     1466.300000       0.944522
     1466.400000       0.944408
     1466.500000       0.944293
     1466.600000       0.944181
     1466.700000       0.944072
     1466.800000       0.943965
     1466.900000       0.943862
     1467.000000       0.943769
     1467.100000       0.943678
     1467.200000       0.943591
     1467.300000       0.943506
     1467.400000       0.943427
     1467.500000       0.943352
     1467.600000       0.943273
     1467.700000       0.943195
     1467.800000       0.943066
     1467.900000       0.942730
     1468.000000       0.942314
     1468.100000       0.941720
     1468.200000       0.941049
     1468.300000       0.940392
     1468.400000       0.939713
     1468.500000       0.939050
     1468.600000       0.938398
     1468.700000       0.937791
     1468.800000       0.937223
     1468.900000       0.936680
     1469.000000       0.936165
     1469.100000       0.935660
     1469.200000       0.935181
     1469.300000       0.934715
     1469.400000       0.934245
     1469.500000       0.933780
     1469.600000       0.933328
     1469.700000       0.932882
     1469.800000       0.932446
     1469.900000       0.932016
     1470.000000       0.931592
     1470.100000       0.931174
     1470.200000       0.930757
     1470.300000       0.930342
     1470.400000       0.929908
     1470.500000       0.929447
     1470.600000       0.928947
     1470.700000       0.928338
     1470.800000       0.927707
     1470.900000       0.927098
     1471.000000       0.926491
     1471.100000       0.925882
     1471.200000       0.925271
     1471.300000       0.924655
     1471.400000       0.924030
     1471.500000       0.923406
     1471.600000       0.922783
     1471.700000       0.922164
     1471.800000       0.921550
     1471.900000       0.920943
     1472.000000       0.920353
     1472.100000       0.919767
     1472.200000       0.919180
     1472.300000       0.918593
     1472.400000       0.918007
     1472.500000       0.917421
     1472.600000       0.916837
     1472.700000       0.916256
     1472.800000       0.915657
     1472.900000       0.915043
     1473.000000       0.914374
     1473.100000       0.913612
     1473.200000       0.912783
     1473.300000       0.911783
     1473.400000       0.910751
     1473.500000       0.909752
     1473.600000       0.908764
     1473.700000       0.907785
     1473.800000       0.906816
     1473.900000       0.905854
     1474.000000       0.904898
     1474.100000       0.903942
     1474.200000       0.902987
     1474.300000       0.902017
     1474.400000       0.901023
     1474.500000       0.900016
     1474.600000       0.898984
     1474.700000       0.897941
     1474.800000       0.896874
     1474.900000       0.895794
     1475.000000       0.894692
     1475.100000       0.893573
     1475.200000       0.892434
     1475.300000       0.891275
     1475.400000       0.890102
     1475.500000       0.888931
     1475.600000       0.887624
     1475.700000       0.885992
     1475.800000       0.884237
     1475.900000       0.882409
     1476.000000       0.880527
     1476.100000       0.878666
     1476.200000       0.876800
     1476.300000       0.874928
     1476.400000       0.873051
     1476.500000       0.871170
     1476.600000       0.869284
     1476.700000       0.867398
     1476.800000       0.865527
     1476.900000       0.863573
     1477.000000       0.861383
     1477.100000       0.859137
     1477.200000       0.856836
     1477.300000       0.854510
     1477.400000       0.852229
     1477.500000       0.849952
     1477.600000       0.847664
     1477.700000       0.845368
     1477.800000       0.843068
     1477.900000       0.840753
     1478.000000       0.838274
     1478.100000       0.835616
     1478.200000       0.832822
     1478.300000       0.829811
     1478.400000       0.826755
     1478.500000       0.823691
     1478.600000       0.820616
     1478.700000       0.817541
     1478.800000       0.814466
     1478.900000       0.811392
     1479.000000       0.808319
     1479.100000       0.805210
     1479.200000       0.802049
     1479.300000       0.798836
     1479.400000       0.795506
     1479.500000       0.792133
     1479.600000       0.788724
     1479.700000       0.785298
     1479.800000       0.781846
     1479.900000       0.778390
     1480.000000       0.774937
     1480.100000       0.771485
     1480.200000       0.768021
     1480.300000       0.764530
     1480.400000       0.761008
     1480.500000       0.757370
     1480.600000       0.753689
     1480.700000       0.749941
     1480.800000       0.746173
     1480.900000       0.742428
     1481.000000       0.738690
     1481.100000       0.734955
     1481.200000       0.731223
     1481.300000       0.727468
     1481.400000       0.723687
     1481.500000       0.719906
     1481.600000       0.716133
     1481.700000       0.712365
     1481.800000       0.708615
     1481.900000       0.704870
     1482.000000       0.701126
     1482.100000       0.697387
     1482.200000       0.693649
     1482.300000       0.689910
     1482.400000       0.686179
     1482.500000       0.682476
     1482.600000       0.678783
     1482.700000       0.675098
     1482.800000       0.671422
     1482.900000       0.667744
     1483.000000       0.664075
     1483.100000       0.660414
     1483.200000       0.656756
     1483.300000       0.653099
     1483.400000       0.649442
     1483.500000       0.645787
     1483.600000       0.642140
     1483.700000       0.638441
     1483.800000       0.634653
     1483.900000       0.630786
     1484.000000       0.626644
     1484.100000       0.622416
     1484.200000       0.618167
     1484.300000       0.613884
     1484.400000       0.609609
     1484.500000       0.605334
     1484.600000       0.601056
     1484.700000       0.596780
     1484.800000       0.592503
     1484.900000       0.588235
     1485.000000       0.583987
     1485.100000       0.579754
     1485.200000       0.575528
     1485.300000       0.571314
     1485.400000       0.567106
     1485.500000       0.562906
     1485.600000       0.558710
     1485.700000       0.554514
     1485.800000       0.550316
     1485.900000       0.546113
     1486.000000       0.541872
     1486.100000       0.537682
     1486.200000       0.533717
     1486.300000       0.529823
     1486.400000       0.525967
     1486.500000       0.522141
     1486.600000       0.518300
     1486.700000       0.514444
     1486.800000       0.510553
     1486.900000       0.506607
     1487.000000       0.502628
     1487.100000       0.498606
     1487.200000       0.494534
     1487.300000       0.490393
     1487.400000       0.486217
     1487.500000       0.481927
     1487.600000       0.477572
     1487.700000       0.473222
     1487.800000       0.468881
     1487.900000       0.464548
     1488.000000       0.460234
     1488.100000       0.455934
     1488.200000       0.451671
     1488.300000       0.447428
     1488.400000       0.443229
     1488.500000       0.439060
     1488.600000       0.434921
     1488.700000       0.430806
     1488.800000       0.426727
     1488.900000       0.422661
     1489.000000       0.418602
     1489.100000       0.414551
     1489.200000       0.410503
     1489.300000       0.406442
     1489.400000       0.402415
     1489.500000       0.398548
     1489.600000       0.394751
     1489.700000       0.391044
     1489.800000       0.387421
     1489.900000       0.383813
     1490.000000       0.380235
     1490.100000       0.376656
     1490.200000       0.373070
     1490.300000       0.369490
     1490.400000       0.365925
     1490.500000       0.362363
     1490.600000       0.358771
     1490.700000       0.355184
     1490.800000       0.351614
     1490.900000       0.348057
     1491.000000       0.344516
     1491.100000       0.340995
     1491.200000       0.337486
     1491.300000       0.333991
     1491.400000       0.330498
     1491.500000       0.326997
     1491.600000       0.323485
     1491.700000       0.319895
     1491.800000       0.316207
     1491.900000       0.312445
     1492.000000       0.308571
     1492.100000       0.304666
     1492.200000       0.300733
     1492.300000       0.296767
     1492.400000       0.292700
     1492.500000       0.288578
     1492.600000       0.284419
     1492.700000       0.280239
     1492.800000       0.276156
     1492.900000       0.272185
     1493.000000       0.268276
     1493.100000       0.264473
     1493.200000       0.260690
     1493.300000       0.256892
     1493.400000       0.253091
     1493.500000       0.249278
     1493.600000       0.245465
     1493.700000       0.241768
     1493.800000       0.238174
     1493.900000       0.234758
     1494.000000       0.231725
     1494.100000       0.228794
     1494.200000       0.225969
     1494.300000       0.223174
     1494.400000       0.220356
     1494.500000       0.217531
     1494.600000       0.214681
     1494.700000       0.211801
     1494.800000       0.208972
     1494.900000       0.206200
     1495.000000       0.203504
     1495.100000       0.200995
     1495.200000       0.198524
     1495.300000       0.196022
     1495.400000       0.193517
     1495.500000       0.191022
     1495.600000       0.188536
     1495.700000       0.186071
     1495.800000       0.183633
     1495.900000       0.181240
     1496.000000       0.178936
     1496.100000       0.176677
     1496.200000       0.174518
     1496.300000       0.172420
     1496.400000       0.170327
     1496.500000       0.168238
     1496.600000       0.166152
     1496.700000       0.164066
     1496.800000       0.161999
     1496.900000       0.159960
     1497.000000       0.157953
     1497.100000       0.156046
     1497.200000       0.154178
     1497.300000       0.152330
     1497.400000       0.150499
     1497.500000       0.148677
     1497.600000       0.146861
     1497.700000       0.145051
     1497.800000       0.143248
     1497.900000       0.141461
     1498.000000       0.139720
     1498.100000       0.138003
     1498.200000       0.136354
     1498.300000       0.134742
     1498.400000       0.133133
     1498.500000       0.131529
     1498.600000       0.129928
     1498.700000       0.128329
     1498.800000       0.126729
     1498.900000       0.125129
     1499.000000       0.123523
     1499.100000       0.121886
     1499.200000       0.120229
     1499.300000       0.118519
     1499.400000       0.116751
     1499.500000       0.114984
     1499.600000       0.113223
     1499.700000       0.111463
     1499.800000       0.109700
     1499.900000       0.107936
     1500.000000       0.106153
     1500.100000       0.104375
     1500.200000       0.102768
     1500.300000       0.101314
     1500.400000       0.099949
     1500.500000       0.098708
     1500.600000       0.097488
     1500.700000       0.096258
     1500.800000       0.095030
     1500.900000       0.093800
     1501.000000       0.092569
     1501.100000       0.091332
     1501.200000       0.090081
     1501.300000       0.088909
     1501.400000       0.087867
     1501.500000       0.086852
     1501.600000       0.085858
     1501.700000       0.084872
     1501.800000       0.083882
     1501.900000       0.082890
     1502.000000       0.081892
     1502.100000       0.080889
     1502.200000       0.079896
     1502.300000       0.078915
     1502.400000       0.077956
     1502.500000       0.077069
     1502.600000       0.076206
     1502.700000       0.075361
     1502.800000       0.074530
     1502.900000       0.073697
     1503.000000       0.072864
     1503.100000       0.072031
     1503.200000       0.071201
     1503.300000       0.070365
     1503.400000       0.069508
     1503.500000       0.068640
     1503.600000       0.067750
     1503.700000       0.066844
     1503.800000       0.065933
     1503.900000       0.065014
     1504.000000       0.064096
     1504.100000       0.063182
     1504.200000       0.062264
     1504.300000       0.061330
     1504.400000       0.060419
     1504.500000       0.059596
     1504.600000       0.058835
     1504.700000       0.058180
     1504.800000       0.057644
     1504.900000       0.057119
     1505.000000       0.056584
     1505.100000       0.056050
     1505.200000       0.055518
     1505.300000       0.054986
     1505.400000       0.054445
     1505.500000       0.053897
     1505.600000       0.053318
     1505.700000       0.052690
     1505.800000       0.052036
     1505.900000       0.051316
     1506.000000       0.050577
     1506.100000       0.049848
     1506.200000       0.049118
     1506.300000       0.048365
     1506.400000       0.047585
     1506.500000       0.046800
     1506.600000       0.045999
     1506.700000       0.045223
     1506.800000       0.044548
     1506.900000       0.043905
     1507.000000       0.043271
     1507.100000       0.042648
     1507.200000       0.042024
     1507.300000       0.041397
     1507.400000       0.040770
     1507.500000       0.040143
     1507.600000       0.039532
     1507.700000       0.038994
     1507.800000       0.038482
     1507.900000       0.037959
     1508.000000       0.037433
     1508.100000       0.036903
     1508.200000       0.036364
     1508.300000       0.035848
     1508.400000       0.035383
     1508.500000       0.034961
     1508.600000       0.034672
     1508.700000       0.034437
     1508.800000       0.034235
     1508.900000       0.034050
     1509.000000       0.033865
     1509.100000       0.033683
     1509.200000       0.033493
     1509.300000       0.033273
     1509.400000       0.033029
     1509.500000       0.032677
     1509.600000       0.032212
     1509.700000       0.031747
     1509.800000       0.031276
     1509.900000       0.030804
     1510.000000       0.030329
     1510.100000       0.029857
     1510.200000       0.029398
     1510.300000       0.028951
     1510.400000       0.028563
     1510.500000       0.028223
     1510.600000       0.027887
     1510.700000       0.027556
     1510.800000       0.027225
     1510.900000       0.026889
     1511.000000       0.026558
     1511.100000       0.026238
     1511.200000       0.025926
     1511.300000       0.025638
     1511.400000       0.025378
     1511.500000       0.025124
     1511.600000       0.024878
     1511.700000       0.024634
     1511.800000       0.024388
     1511.900000       0.024143
     1512.000000       0.023898
     1512.100000       0.023651
     1512.200000       0.023429
     1512.300000       0.023241
     1512.400000       0.023059
     1512.500000       0.022876
     1512.600000       0.022694
     1512.700000       0.022514
     1512.800000       0.022333
     1512.900000       0.022139
     1513.000000       0.021927
     1513.100000       0.021702
     1513.200000       0.021435
     1513.300000       0.021154
     1513.400000       0.020875
     1513.500000       0.020595
     1513.600000       0.020316
     1513.700000       0.020037
     1513.800000       0.019740
     1513.900000       0.019412
     1514.000000       0.019071
     1514.100000       0.018702
     1514.200000       0.018321
     1514.300000       0.017940
     1514.400000       0.017561
     1514.500000       0.017180
     1514.600000       0.016800
     1514.700000       0.016412
     1514.800000       0.016005
     1514.900000       0.015589
     1515.000000       0.015161
     1515.100000       0.014725
     1515.200000       0.014290
     1515.300000       0.013854
     1515.400000       0.013421
     1515.500000       0.012960
     1515.600000       0.012561
     1515.700000       0.012340
     1515.800000       0.012160
     1515.900000       0.012010
     1516.000000       0.011881
     1516.100000       0.011749
     1516.200000       0.011582
     1516.300000       0.011492
     1516.400000       0.011839
     1516.500000       0.012246
     1516.600000       0.012237
     1516.700000       0.012048
     1516.800000       0.011886
     1516.900000       0.011755
     1517.000000       0.011628
     1517.100000       0.011475
     1517.200000       0.011368
     1517.300000       0.011368
     1517.400000       0.011382
     1517.500000       0.011434
     1517.600000       0.011630
     1517.700000       0.011848
     1517.800000       0.012030
     1517.900000       0.012209
     1518.000000       0.012421
     1518.100000       0.012611
     1518.200000       0.012655
     1518.300000       0.012667
     1518.400000       0.012665
     1518.500000       0.012592
     1518.600000       0.012500
     1518.700000       0.012428
     1518.800000       0.012353
     1518.900000       0.012266
     1519.000000       0.012166
     1519.100000       0.011976
     1519.200000       0.011452
     1519.300000       0.010841
     1519.400000       0.010040
     1519.500000       0.009417
     1519.600000       0.009810
     1519.700000       0.010772
     1519.800000       0.010975
     1519.900000       0.010842
     1520.000000       0.010768
     1520.100000       0.010794
     1520.200000       0.010838
     1520.300000       0.010877
     1520.400000       0.010919
     1520.500000       0.010960
     1520.600000       0.011000
     1520.700000       0.011042
     1520.800000       0.011095
     1520.900000       0.011127
     1521.000000       0.011039
     1521.100000       0.010821
     1521.200000       0.010574
     1521.300000       0.010259
     1521.400000       0.009941
     1521.500000       0.009629
     1521.600000       0.009316
     1521.700000       0.008994
     1521.800000       0.008676
     1521.900000       0.008397
     1522.000000       0.008177
     1522.100000       0.008108
     1522.200000       0.008188
     1522.300000       0.008291
     1522.400000       0.008374
     1522.500000       0.008457
     1522.600000       0.008540
     1522.700000       0.008622
     1522.800000       0.008709
     1522.900000       0.008816
     1523.000000       0.008869
     1523.100000       0.008792
     1523.200000       0.008672
     1523.300000       0.008561
     1523.400000       0.008457
     1523.500000       0.008352
     1523.600000       0.008243
     1523.700000       0.008134
     1523.800000       0.008027
     1523.900000       0.007923
     1524.000000       0.007836
     1524.100000       0.007757
     1524.200000       0.007689
     1524.300000       0.007628
     1524.400000       0.007567
     1524.500000       0.007505
     1524.600000       0.007444
     1524.700000       0.007384
     1524.800000       0.007324
     1524.900000       0.007253
     1525.000000       0.007168
     1525.100000       0.007070
     1525.200000       0.006935
     1525.300000       0.006789
     1525.400000       0.006646
     1525.500000       0.006502
     1525.600000       0.006360
     1525.700000       0.006219
     1525.800000       0.006083
     1525.900000       0.005927
     1526.000000       0.005823
     1526.100000       0.005853
     1526.200000       0.005942
     1526.300000       0.006016
     1526.400000       0.006082
     1526.500000       0.006148
     1526.600000       0.006214
     1526.700000       0.006280
     1526.800000       0.006359
     1526.900000       0.006433
     1527.000000       0.006444
     1527.100000       0.006426
     1527.200000       0.006403
     1527.300000       0.006363
     1527.400000       0.006316
     1527.500000       0.006273
     1527.600000       0.006230
     1527.700000       0.006190
     1527.800000       0.006155
     1527.900000       0.006108
     1528.000000       0.006011
     1528.100000       0.005889
     1528.200000       0.005734
     1528.300000       0.005554
     1528.400000       0.005375
     1528.500000       0.005197
     1528.600000       0.005019
     1528.700000       0.004837
     1528.800000       0.004660
     1528.900000       0.004485
     1529.000000       0.004327
     1529.100000       0.004292
     1529.200000       0.004287
     1529.300000       0.004283
     1529.400000       0.004273
     1529.500000       0.004264
     1529.600000       0.004259
     1529.700000       0.004254
     1529.800000       0.004249
     1529.900000       0.004240
     1530.000000       0.004229
     1530.100000       0.004212
     1530.200000       0.004193
     1530.300000       0.004176
     1530.400000       0.004158
     1530.500000       0.004138
     1530.600000       0.004116
     1530.700000       0.004094
     1530.800000       0.004077
     1530.900000       0.004060
     1531.000000       0.004027
     1531.100000       0.003983
     1531.200000       0.003935
     1531.300000       0.003880
     1531.400000       0.003825
     1531.500000       0.003773
     1531.600000       0.003720
     1531.700000       0.003666
     1531.800000       0.003611
     1531.900000       0.003567
     1532.000000       0.003528
     1532.100000       0.003509
     1532.200000       0.003514
     1532.300000       0.003524
     1532.400000       0.003529
     1532.500000       0.003532
     1532.600000       0.003537
     1532.700000       0.003546
     1532.800000       0.003552
     1532.900000       0.003543
     1533.000000       0.003520
     1533.100000       0.003455
     1533.200000       0.003315
     1533.300000       0.003178
     1533.400000       0.003052
     1533.500000       0.002926
     1533.600000       0.002798
     1533.700000       0.002667
     1533.800000       0.002533
     1533.900000       0.002395
     1534.000000       0.002275
     1534.100000       0.002183
     1534.200000       0.002095
     1534.300000       0.002008
     1534.400000       0.001923
     1534.500000       0.001837
     1534.600000       0.001751
     1534.700000       0.001664
     1534.800000       0.001555
     1534.900000       0.001480
     1535.000000       0.001520
     1535.100000       0.001642
     1535.200000       0.001797
     1535.300000       0.001995
     1535.400000       0.002197
     1535.500000       0.002392
     1535.600000       0.002587
     1535.700000       0.002788
     1535.800000       0.002990
     1535.900000       0.003151
     1536.000000       0.003291
     1536.100000       0.003368
     1536.200000       0.003377
     1536.300000       0.003384
     1536.400000       0.003392
     1536.500000       0.003400
     1536.600000       0.003409
     1536.700000       0.003418
     1536.800000       0.003424
     1536.900000       0.003412
     1537.000000       0.003380
     1537.100000       0.003305
     1537.200000       0.003128
     1537.300000       0.002949
     1537.400000       0.002789
     1537.500000       0.002628
     1537.600000       0.002464
     1537.700000       0.002299
     1537.800000       0.002121
     1537.900000       0.001912
     1538.000000       0.001824
     1538.100000       0.001833
     1538.200000       0.001850
     1538.300000       0.001869
     1538.400000       0.001891
     1538.500000       0.001913
     1538.600000       0.001934
     1538.700000       0.001956
     1538.800000       0.001983
     1538.900000       0.002004
     1539.000000       0.002002
     1539.100000       0.001988
     1539.200000       0.001970
     1539.300000       0.001945
     1539.400000       0.001918
     1539.500000       0.001892
     1539.600000       0.001867
     1539.700000       0.001839
     1539.800000       0.001807
     1539.900000       0.001796
     1540.000000       0.001818
     1540.100000       0.001857
     1540.200000       0.001918
     1540.300000       0.002006
     1540.400000       0.002091
     1540.500000       0.002175
     1540.600000       0.002259
     1540.700000       0.002344
     1540.800000       0.002422
     1540.900000       0.002488
     1541.000000       0.002547
     1541.100000       0.002561
     1541.200000       0.002538
     1541.300000       0.002504
     1541.400000       0.002477
     1541.500000       0.002452
     1541.600000       0.002427
     1541.700000       0.002403
     1541.800000       0.002372
     1541.900000       0.002332
     1542.000000       0.002280
     1542.100000       0.002109
     1542.200000       0.001794
     1542.300000       0.001501
     1542.400000       0.001225
     1542.500000       0.000947
