14,   channel 14 SRF from file SRF_SSH-1_Delivery_220520/SRF_DMSP-F3_SSH_Chan14.asc received June 2022 from SPASCIA
Number of data points:
268
Wavenumber (cm-1)   Filter response
      734.300000       0.000960
      734.400000       0.001070
      734.500000       0.001190
      734.600000       0.001310
      734.700000       0.001450
      734.800000       0.001610
      734.900000       0.001780
      735.000000       0.001960
      735.100000       0.002170
      735.200000       0.002390
      735.300000       0.002630
      735.400000       0.002900
      735.500000       0.003180
      735.600000       0.003500
      735.700000       0.003840
      735.800000       0.004220
      735.900000       0.004630
      736.000000       0.005070
      736.100000       0.005550
      736.200000       0.006070
      736.300000       0.006630
      736.400000       0.007250
      736.500000       0.007910
      736.600000       0.008620
      736.700000       0.009400
      736.800000       0.010230
      736.900000       0.011130
      737.000000       0.012100
      737.100000       0.013150
      737.200000       0.014270
      737.300000       0.015470
      737.400000       0.016770
      737.500000       0.018160
      737.600000       0.019650
      737.700000       0.021240
      737.800000       0.022950
      737.900000       0.024780
      738.000000       0.026720
      738.100000       0.028800
      738.200000       0.031020
      738.300000       0.033380
      738.400000       0.035890
      738.500000       0.038560
      738.600000       0.041400
      738.700000       0.044410
      738.800000       0.047600
      738.900000       0.050990
      739.000000       0.054570
      739.100000       0.058350
      739.200000       0.062350
      739.300000       0.066580
      739.400000       0.071030
      739.500000       0.075720
      739.600000       0.080660
      739.700000       0.085850
      739.800000       0.091310
      739.900000       0.097030
      740.000000       0.104430
      740.100000       0.113600
      740.200000       0.123210
      740.300000       0.133250
      740.400000       0.143720
      740.500000       0.154630
      740.600000       0.165970
      740.700000       0.177740
      740.800000       0.189940
      740.900000       0.202570
      741.000000       0.215610
      741.100000       0.229060
      741.200000       0.242910
      741.300000       0.257160
      741.400000       0.271780
      741.500000       0.286770
      741.600000       0.302110
      741.700000       0.317780
      741.800000       0.333770
      741.900000       0.350050
      742.000000       0.366620
      742.100000       0.383440
      742.200000       0.400490
      742.300000       0.417750
      742.400000       0.435200
      742.500000       0.452800
      742.600000       0.470530
      742.700000       0.488370
      742.800000       0.505000
      742.900000       0.519370
      743.000000       0.533830
      743.100000       0.548380
      743.200000       0.562990
      743.300000       0.577640
      743.400000       0.592330
      743.500000       0.607040
      743.600000       0.621750
      743.700000       0.636430
      743.800000       0.651090
      743.900000       0.665680
      744.000000       0.680210
      744.100000       0.694640
      744.200000       0.708960
      744.300000       0.723150
      744.400000       0.737200
      744.500000       0.751070
      744.600000       0.764750
      744.700000       0.778230
      744.800000       0.791480
      744.900000       0.804480
      745.000000       0.817210
      745.100000       0.829660
      745.200000       0.841800
      745.300000       0.853610
      745.400000       0.865080
      745.500000       0.876200
      745.600000       0.886930
      745.700000       0.897260
      745.800000       0.907190
      745.900000       0.916680
      746.000000       0.925730
      746.100000       0.934320
      746.200000       0.942430
      746.300000       0.950050
      746.400000       0.957180
      746.500000       0.963780
      746.600000       0.969870
      746.700000       0.975420
      746.800000       0.980420
      746.900000       0.984870
      747.000000       0.988760
      747.100000       0.992080
      747.200000       0.994830
      747.300000       0.996990
      747.400000       0.998580
      747.500000       0.999580
      747.600000       0.999990
      747.700000       0.999810
      747.800000       0.999050
      747.900000       0.997700
      748.000000       0.995760
      748.100000       0.993250
      748.200000       0.990160
      748.300000       0.986490
      748.400000       0.982270
      748.500000       0.977480
      748.600000       0.972150
      748.700000       0.966280
      748.800000       0.959880
      748.900000       0.952960
      749.000000       0.945540
      749.100000       0.937620
      749.200000       0.929220
      749.300000       0.920350
      749.400000       0.911040
      749.500000       0.901280
      749.600000       0.891110
      749.700000       0.880540
      749.800000       0.869570
      749.900000       0.858240
      750.000000       0.846560
      750.100000       0.834550
      750.200000       0.822220
      750.300000       0.809600
      750.400000       0.796710
      750.500000       0.783560
      750.600000       0.770170
      750.700000       0.756570
      750.800000       0.742770
      750.900000       0.728790
      751.000000       0.714660
      751.100000       0.700380
      751.200000       0.685990
      751.300000       0.671500
      751.400000       0.656930
      751.500000       0.642300
      751.600000       0.627620
      751.700000       0.612920
      751.800000       0.598210
      751.900000       0.583520
      752.000000       0.568840
      752.100000       0.554210
      752.200000       0.539640
      752.300000       0.525150
      752.400000       0.510740
      752.500000       0.495520
      752.600000       0.477650
      752.700000       0.459880
      752.800000       0.442220
      752.900000       0.424710
      753.000000       0.407370
      753.100000       0.390230
      753.200000       0.373320
      753.300000       0.356650
      753.400000       0.340250
      753.500000       0.324140
      753.600000       0.308330
      753.700000       0.292860
      753.800000       0.277730
      753.900000       0.262960
      754.000000       0.248570
      754.100000       0.234550
      754.200000       0.220940
      754.300000       0.207730
      754.400000       0.194940
      754.500000       0.182570
      754.600000       0.170630
      754.700000       0.159110
      754.800000       0.148030
      754.900000       0.137390
      755.000000       0.127170
      755.100000       0.117390
      755.200000       0.108050
      755.300000       0.099400
      755.400000       0.093560
      755.500000       0.088000
      755.600000       0.082710
      755.700000       0.077670
      755.800000       0.072880
      755.900000       0.068330
      756.000000       0.064020
      756.100000       0.059930
      756.200000       0.056060
      756.300000       0.052400
      756.400000       0.048930
      756.500000       0.045670
      756.600000       0.042580
      756.700000       0.039680
      756.800000       0.036940
      756.900000       0.034370
      757.000000       0.031940
      757.100000       0.029670
      757.200000       0.027540
      757.300000       0.025540
      757.400000       0.023670
      757.500000       0.021910
      757.600000       0.020270
      757.700000       0.018740
      757.800000       0.017310
      757.900000       0.015980
      758.000000       0.014740
      758.100000       0.013580
      758.200000       0.012510
      758.300000       0.011510
      758.400000       0.010580
      758.500000       0.009720
      758.600000       0.008930
      758.700000       0.008190
      758.800000       0.007500
      758.900000       0.006870
      759.000000       0.006290
      759.100000       0.005750
      759.200000       0.005250
      759.300000       0.004800
      759.400000       0.004380
      759.500000       0.003990
      759.600000       0.003630
      759.700000       0.003310
      759.800000       0.003010
      759.900000       0.002730
      760.000000       0.002480
      760.100000       0.002250
      760.200000       0.002040
      760.300000       0.001850
      760.400000       0.001670
      760.500000       0.001510
      760.600000       0.001370
      760.700000       0.001240
      760.800000       0.001110
      760.900000       0.001010
      761.000000       0.000910
