28,   28, MVIRI VIS channel from srf_MET2_1985213_1985214_1801-Release_S10EL_10.dat
Number of data points:
730
Wavenumber (cm-1)   Filter response
     8916.629500       0.000000
     8924.587200       0.000000
     8932.559200       0.000002
     8940.545400       0.000011
     8948.545900       0.000032
     8956.560700       0.000069
     8964.589900       0.000126
     8972.633500       0.000207
     8980.691500       0.000317
     8988.764000       0.000459
     8996.851100       0.000637
     9004.952700       0.000854
     9013.068900       0.001114
     9021.199800       0.001420
     9029.345400       0.001775
     9037.505600       0.002182
     9045.680700       0.002643
     9053.870500       0.003161
     9062.075200       0.003740
     9070.294800       0.004380
     9078.529300       0.005084
     9086.778700       0.005855
     9095.043200       0.006693
     9103.322700       0.007602
     9111.617300       0.008583
     9119.927000       0.009638
     9128.251900       0.010767
     9136.592100       0.011973
     9144.947400       0.013257
     9153.318100       0.014619
     9161.704100       0.016062
     9170.105500       0.017585
     9178.522300       0.019191
     9186.954500       0.020879
     9195.402300       0.022651
     9203.865600       0.024507
     9212.344500       0.026447
     9220.839100       0.028473
     9229.349300       0.030584
     9237.875300       0.032781
     9246.417000       0.035064
     9254.974500       0.037433
     9263.547900       0.039889
     9272.137200       0.042431
     9280.742500       0.045059
     9289.363700       0.047773
     9298.000900       0.050574
     9306.654300       0.053461
     9315.323700       0.056432
     9324.009300       0.059489
     9332.711200       0.062631
     9341.429200       0.065857
     9350.163600       0.069167
     9358.914400       0.072560
     9367.681500       0.076036
     9376.465100       0.079594
     9385.265100       0.083233
     9394.081700       0.086953
     9402.914900       0.090752
     9411.764700       0.094631
     9420.631200       0.098588
     9429.514400       0.102621
     9438.414300       0.106732
     9447.331100       0.110917
     9456.264800       0.115177
     9465.215300       0.119510
     9474.182900       0.123915
     9483.167400       0.128392
     9492.169000       0.132938
     9501.187600       0.137553
     9510.223500       0.142237
     9519.276500       0.146986
     9528.346800       0.151802
     9537.434400       0.156681
     9546.539400       0.161623
     9555.661700       0.166627
     9564.801500       0.171691
     9573.958800       0.176814
     9583.133700       0.181996
     9592.326100       0.187233
     9601.536200       0.192525
     9610.764100       0.197871
     9620.009600       0.203270
     9629.273000       0.208720
     9638.554200       0.214219
     9647.853400       0.219767
     9657.170400       0.225361
     9666.505600       0.231001
     9675.858700       0.236685
     9685.230000       0.242411
     9694.619500       0.248179
     9704.027200       0.253986
     9713.453100       0.259832
     9722.897400       0.265716
     9732.360100       0.271634
     9741.841200       0.277586
     9751.340800       0.283571
     9760.859000       0.289588
     9770.395700       0.295634
     9779.951100       0.301709
     9789.525200       0.307811
     9799.118100       0.313938
     9808.729800       0.320090
     9818.360300       0.326264
     9828.009800       0.332460
     9837.678300       0.338676
     9847.365800       0.344910
     9857.072400       0.351162
     9866.798200       0.357430
     9876.543200       0.363711
     9886.307500       0.370007
     9896.091000       0.376314
     9905.894000       0.382631
     9915.716400       0.388958
     9925.558300       0.395293
     9935.419800       0.401634
     9945.300800       0.407981
     9955.201600       0.414331
     9965.122100       0.420684
     9975.062300       0.427039
     9985.022500       0.433394
     9995.002500       0.439748
    10005.002500       0.446099
    10015.022500       0.452447
    10025.062700       0.458790
    10035.122900       0.465128
    10045.203400       0.471458
    10055.304200       0.477781
    10065.425300       0.484094
    10075.566800       0.490396
    10085.728700       0.496687
    10095.911200       0.502966
    10106.114200       0.509231
    10116.337900       0.515481
    10126.582300       0.521715
    10136.847400       0.527932
    10147.133400       0.534131
    10157.440300       0.540311
    10167.768200       0.546472
    10178.117000       0.552611
    10188.487000       0.558729
    10198.878100       0.564824
    10209.290500       0.570896
    10219.724100       0.576942
    10230.179000       0.582963
    10240.655400       0.588958
    10251.153300       0.594926
    10261.672700       0.600865
    10272.213700       0.606776
    10282.776300       0.612656
    10293.360800       0.618507
    10303.967000       0.624326
    10314.595200       0.630113
    10325.245200       0.635867
    10335.917300       0.641588
    10346.611500       0.647274
    10357.327800       0.652926
    10368.066400       0.658541
    10378.827200       0.664121
    10389.610400       0.669664
    10400.416000       0.675169
    10411.244100       0.680636
    10422.094800       0.686064
    10432.968200       0.691453
    10443.864200       0.696802
    10454.783100       0.702110
    10465.724800       0.707378
    10476.689400       0.712604
    10487.677000       0.717788
    10498.687700       0.722929
    10509.721500       0.728028
    10520.778500       0.733083
    10531.858900       0.738094
    10542.962600       0.743061
    10554.089700       0.747984
    10565.240400       0.752861
    10576.414600       0.757692
    10587.612500       0.762478
    10598.834100       0.767218
    10610.079600       0.771912
    10621.348900       0.776558
    10632.642200       0.781157
    10643.959600       0.785709
    10655.301000       0.790214
    10666.666700       0.794670
    10678.056600       0.799078
    10689.470900       0.803438
    10700.909600       0.807749
    10712.372800       0.812011
    10723.860600       0.816224
    10735.373100       0.820388
    10746.910300       0.824502
    10758.472300       0.828567
    10770.059200       0.832582
    10781.671200       0.836548
    10793.308100       0.840463
    10804.970300       0.844328
    10816.657700       0.848143
    10828.370300       0.851908
    10840.108400       0.855623
    10851.871900       0.859287
    10863.661100       0.862901
    10875.475800       0.866464
    10887.316300       0.869977
    10899.182600       0.873440
    10911.074700       0.876852
    10922.992900       0.880213
    10934.937100       0.883524
    10946.907500       0.886785
    10958.904100       0.889995
    10970.927000       0.893155
    10982.976400       0.896264
    10995.052200       0.899323
    11007.154700       0.902332
    11019.283700       0.905291
    11031.439600       0.908200
    11043.622300       0.911059
    11055.832000       0.913868
    11068.068600       0.916628
    11080.332400       0.919338
    11092.623400       0.921999
    11104.941700       0.924610
    11117.287400       0.927172
    11129.660500       0.929686
    11142.061300       0.932150
    11154.489700       0.934566
    11166.945800       0.936934
    11179.429800       0.939253
    11191.941800       0.941524
    11204.481800       0.943748
    11217.049900       0.945923
    11229.646300       0.948051
    11242.270900       0.950132
    11254.924000       0.952166
    11267.605600       0.954153
    11280.315800       0.956094
    11293.054800       0.957988
    11305.822500       0.959836
    11318.619100       0.961639
    11331.444800       0.963395
    11344.299500       0.965107
    11357.183400       0.966773
    11370.096600       0.968395
    11383.039300       0.969972
    11396.011400       0.971505
    11409.013100       0.972994
    11422.044500       0.974439
    11435.105800       0.975840
    11448.196900       0.977199
    11461.318100       0.978515
    11474.469300       0.979788
    11487.650800       0.981019
    11500.862600       0.982208
    11514.104800       0.983356
    11527.377500       0.984462
    11540.680900       0.985527
    11554.015000       0.986551
    11567.380000       0.987535
    11580.775900       0.988479
    11594.202900       0.989383
    11607.661100       0.990248
    11621.150500       0.991074
    11634.671300       0.991860
    11648.223600       0.992608
    11661.807600       0.993318
    11675.423200       0.993990
    11689.070700       0.994625
    11702.750100       0.995223
    11716.461600       0.995783
    11730.205300       0.996307
    11743.981200       0.996795
    11757.789500       0.997246
    11771.630400       0.997663
    11785.503800       0.998044
    11799.410000       0.998390
    11813.349100       0.998701
    11827.321100       0.998978
    11841.326200       0.999221
    11855.364600       0.999431
    11869.436200       0.999607
    11883.541300       0.999750
    11897.680000       0.999861
    11911.852300       0.999939
    11926.058400       0.999985
    11940.298500       1.000000
    11954.572600       0.999983
    11968.880900       0.999935
    11983.223500       0.999857
    11997.600500       0.999748
    12012.012000       0.999608
    12026.458200       0.999439
    12040.939200       0.999241
    12055.455100       0.999013
    12070.006000       0.998757
    12084.592100       0.998471
    12099.213600       0.998158
    12113.870400       0.997817
    12128.562800       0.997448
    12143.290800       0.997051
    12158.054700       0.996628
    12172.854500       0.996177
    12187.690400       0.995701
    12202.562500       0.995198
    12217.471000       0.994669
    12232.415900       0.994114
    12247.397400       0.993535
    12262.415700       0.992930
    12277.470800       0.992300
    12292.563000       0.991646
    12307.692300       0.990967
    12322.858900       0.990265
    12338.062900       0.989539
    12353.304500       0.988789
    12368.583800       0.988017
    12383.900900       0.987221
    12399.256000       0.986403
    12414.649300       0.985562
    12430.080800       0.984699
    12445.550700       0.983814
    12461.059200       0.982908
    12476.606400       0.981980
    12492.192400       0.981031
    12507.817400       0.980061
    12523.481500       0.979070
    12539.185000       0.978059
    12554.927800       0.977027
    12570.710200       0.975975
    12586.532400       0.974904
    12602.394500       0.973813
    12618.296500       0.972703
    12634.238800       0.971573
    12650.221400       0.970425
    12666.244500       0.969257
    12682.308200       0.968072
    12698.412700       0.966868
    12714.558200       0.965645
    12730.744700       0.964405
    12746.972600       0.963147
    12763.241900       0.961871
    12779.552700       0.960578
    12795.905300       0.959268
    12812.299800       0.957941
    12828.736400       0.956597
    12845.215200       0.955236
    12861.736300       0.953859
    12878.300100       0.952465
    12894.906500       0.951055
    12911.555800       0.949629
    12928.248200       0.948188
    12944.983800       0.946730
    12961.762800       0.945258
    12978.585300       0.943769
    12995.451600       0.942266
    13012.361700       0.940747
    13029.316000       0.939213
    13046.314400       0.937665
    13063.357300       0.936102
    13080.444700       0.934525
    13097.576900       0.932932
    13114.754100       0.931326
    13131.976400       0.929706
    13149.243900       0.928071
    13166.556900       0.926423
    13183.915600       0.924761
    13201.320100       0.923085
    13218.770700       0.921396
    13236.267400       0.919693
    13253.810500       0.917977
    13271.400100       0.916248
    13289.036500       0.914506
    13306.719900       0.912750
    13324.450400       0.910982
    13342.228200       0.909201
    13360.053400       0.907407
    13377.926400       0.905601
    13395.847300       0.903782
    13413.816200       0.901951
    13431.833400       0.900108
    13449.899100       0.898252
    13468.013500       0.896384
    13486.176700       0.894505
    13504.388900       0.892613
    13522.650400       0.890709
    13540.961400       0.888794
    13559.322000       0.886866
    13577.732500       0.884928
    13596.193100       0.882977
    13614.703900       0.881015
    13633.265200       0.879042
    13651.877100       0.877058
    13670.540000       0.875062
    13689.253900       0.873055
    13708.019200       0.871037
    13726.836000       0.869008
    13745.704500       0.866968
    13764.624900       0.864917
    13783.597500       0.862855
    13802.622500       0.860782
    13821.700100       0.858699
    13840.830400       0.856605
    13860.013900       0.854500
    13879.250500       0.852385
    13898.540700       0.850260
    13917.884500       0.848124
    13937.282200       0.845978
    13956.734100       0.843821
    13976.240400       0.841655
    13995.801300       0.839478
    14015.417000       0.837291
    14035.087700       0.835094
    14054.813800       0.832887
    14074.595400       0.830670
    14094.432700       0.828444
    14114.326000       0.826207
    14134.275600       0.823961
    14154.281700       0.821705
    14174.344400       0.819440
    14194.464200       0.817165
    14214.641100       0.814880
    14234.875400       0.812586
    14255.167500       0.810283
    14275.517500       0.807970
    14295.925700       0.805649
    14316.392300       0.803317
    14336.917600       0.800977
    14357.501800       0.798628
    14378.145200       0.796270
    14398.848100       0.793903
    14419.610700       0.791526
    14440.433200       0.789142
    14461.316000       0.786748
    14482.259200       0.784346
    14503.263200       0.781935
    14524.328200       0.779515
    14545.454500       0.777087
    14566.642400       0.774651
    14587.892000       0.772206
    14609.203800       0.769753
    14630.577900       0.767292
    14652.014700       0.764822
    14673.514300       0.762345
    14695.077100       0.759859
    14716.703500       0.757366
    14738.393500       0.754865
    14760.147600       0.752356
    14781.966000       0.749839
    14803.849000       0.747315
    14825.796900       0.744783
    14847.809900       0.742244
    14869.888500       0.739697
    14892.032800       0.737143
    14914.243100       0.734582
    14936.519800       0.732014
    14958.863100       0.729438
    14981.273400       0.726856
    15003.750900       0.724267
    15026.296000       0.721671
    15048.909000       0.719069
    15071.590100       0.716460
    15094.339600       0.713844
    15117.158000       0.711222
    15140.045400       0.708594
    15163.002300       0.705959
    15186.028900       0.703319
    15209.125500       0.700673
    15232.292500       0.698020
    15255.530100       0.695362
    15278.838800       0.692698
    15302.218800       0.690029
    15325.670500       0.687354
    15349.194200       0.684674
    15372.790200       0.681988
    15396.458800       0.679298
    15420.200500       0.676602
    15444.015400       0.673901
    15467.904100       0.671196
    15491.866800       0.668486
    15515.903800       0.665772
    15540.015500       0.663053
    15564.202300       0.660330
    15588.464500       0.657602
    15612.802500       0.654871
    15637.216600       0.652135
    15661.707100       0.649396
    15686.274500       0.646653
    15710.919100       0.643907
    15735.641200       0.641157
    15760.441300       0.638404
    15785.319700       0.635647
    15810.276700       0.632888
    15835.312700       0.630125
    15860.428200       0.627360
    15885.623500       0.624593
    15910.899000       0.621822
    15936.255000       0.619050
    15961.691900       0.616275
    15987.210200       0.613498
    16012.810200       0.610720
    16038.492400       0.607939
    16064.257000       0.605157
    16090.104600       0.602373
    16116.035500       0.599588
    16142.050000       0.596802
    16168.148700       0.594015
    16194.332000       0.591226
    16220.600200       0.588437
    16246.953700       0.585647
    16273.393000       0.582857
    16299.918500       0.580067
    16326.530600       0.577276
    16353.229800       0.574485
    16380.016400       0.571695
    16406.890900       0.568904
    16433.853700       0.566114
    16460.905300       0.563325
    16488.046200       0.560536
    16515.276600       0.557748
    16542.597200       0.554961
    16570.008300       0.552175
    16597.510400       0.549391
    16625.103900       0.546608
    16652.789300       0.543826
    16680.567100       0.541046
    16708.437800       0.538269
    16736.401700       0.535493
    16764.459300       0.532719
    16792.611300       0.529948
    16820.857900       0.527179
    16849.199700       0.524413
    16877.637100       0.521649
    16906.170800       0.518888
    16934.801000       0.516131
    16963.528400       0.513377
    16992.353400       0.510626
    17021.276600       0.507878
    17050.298400       0.505134
    17079.419300       0.502394
    17108.639900       0.499658
    17137.960600       0.496925
    17167.382000       0.494197
    17196.904600       0.491473
    17226.528900       0.488754
    17256.255400       0.486039
    17286.084700       0.483328
    17316.017300       0.480623
    17346.053800       0.477922
    17376.194600       0.475227
    17406.440400       0.472536
    17436.791600       0.469851
    17467.248900       0.467172
    17497.812800       0.464497
    17528.483800       0.461829
    17559.262500       0.459166
    17590.149500       0.456509
    17621.145400       0.453858
    17652.250700       0.451213
    17683.466000       0.448574
    17714.791900       0.445941
    17746.228900       0.443315
    17777.777800       0.440695
    17809.439000       0.438082
    17841.213200       0.435475
    17873.101000       0.432875
    17905.103000       0.430282
    17937.219700       0.427696
    17969.451900       0.425116
    18001.800200       0.422544
    18034.265100       0.419978
    18066.847300       0.417420
    18099.547500       0.414869
    18132.366300       0.412325
    18165.304300       0.409789
    18198.362100       0.407260
    18231.540600       0.404738
    18264.840200       0.402224
    18298.261700       0.399717
    18331.805700       0.397218
    18365.472900       0.394726
    18399.264000       0.392243
    18433.179700       0.389766
    18467.220700       0.387297
    18501.387600       0.384836
    18535.681200       0.382383
    18570.102100       0.379938
    18604.651200       0.377500
    18639.329000       0.375069
    18674.136300       0.372647
    18709.073900       0.370232
    18744.142500       0.367825
    18779.342700       0.365426
    18814.675400       0.363034
    18850.141400       0.360650
    18885.741300       0.358273
    18921.475900       0.355904
    18957.346000       0.353543
    18993.352300       0.351189
    19029.495700       0.348843
    19065.776900       0.346504
    19102.196800       0.344172
    19138.756000       0.341847
    19175.455400       0.339530
    19212.295900       0.337220
    19249.278200       0.334918
    19286.403100       0.332622
    19323.671500       0.330333
    19361.084200       0.328051
    19398.642100       0.325775
    19436.346000       0.323507
    19474.196700       0.321245
    19512.195100       0.318989
    19550.342100       0.316740
    19588.638600       0.314497
    19627.085400       0.312260
    19665.683400       0.310029
    19704.433500       0.307804
    19743.336600       0.305585
    19782.393700       0.303371
    19821.605600       0.301163
    19860.973200       0.298960
    19900.497500       0.296763
    19940.179500       0.294570
    19980.020000       0.292382
    20020.020000       0.290199
    20060.180500       0.288021
    20100.502500       0.285847
    20140.986900       0.283677
    20181.634700       0.281511
    20222.446900       0.279349
    20263.424500       0.277191
    20304.568500       0.275036
    20345.880000       0.272885
    20387.359800       0.270736
    20429.009200       0.268591
    20470.829100       0.266448
    20512.820500       0.264308
    20554.984600       0.262170
    20597.322300       0.260034
    20639.834900       0.257900
    20682.523300       0.255767
    20725.388600       0.253636
    20768.432000       0.251507
    20811.654500       0.249378
    20855.057400       0.247250
    20898.641600       0.245123
    20942.408400       0.242995
    20986.358900       0.240868
    21030.494200       0.238741
    21074.815600       0.236613
    21119.324200       0.234485
    21164.021200       0.232356
    21208.907700       0.230226
    21253.985100       0.228094
    21299.254500       0.225961
    21344.717200       0.223826
    21390.374300       0.221689
    21436.227200       0.219549
    21482.277100       0.217407
    21528.525300       0.215262
    21574.973000       0.213115
    21621.621600       0.210963
    21668.472400       0.208809
    21715.526600       0.206650
    21762.785600       0.204488
    21810.250800       0.202321
    21857.923500       0.200150
    21905.805000       0.197974
    21953.896800       0.195794
    22002.200200       0.193608
    22050.716600       0.191416
    22099.447500       0.189220
    22148.394200       0.187017
    22197.558300       0.184808
    22246.941000       0.182593
    22296.544000       0.180372
    22346.368700       0.178144
    22396.416600       0.175909
    22446.689100       0.173667
    22497.187900       0.171418
    22547.914300       0.169162
    22598.870100       0.166898
    22650.056600       0.164626
    22701.475600       0.162346
    22753.128600       0.160058
    22805.017100       0.157763
    22857.142900       0.155458
    22909.507400       0.153146
    22962.112500       0.150825
    23014.959700       0.148495
    23068.050700       0.146156
    23121.387300       0.143809
    23174.971000       0.141453
    23228.803700       0.139087
    23282.887100       0.136713
    23337.222900       0.134329
    23391.812900       0.131937
    23446.658900       0.129535
    23501.762600       0.127124
    23557.126000       0.124704
    23612.750900       0.122275
    23668.639100       0.119837
    23724.792400       0.117389
    23781.212800       0.114933
    23837.902300       0.112468
    23894.862600       0.109994
    23952.095800       0.107511
    24009.603800       0.105020
    24067.388700       0.102520
    24125.452400       0.100013
    24183.796900       0.097497
    24242.424200       0.094973
    24301.336600       0.092442
    24360.535900       0.089903
    24420.024400       0.087358
    24479.804200       0.084805
    24539.877300       0.082246
    24600.246000       0.079681
    24660.912500       0.077110
    24721.878900       0.074534
    24783.147500       0.071953
    24844.720500       0.069367
    24906.600200       0.066778
    24968.789000       0.064184
    25031.289100       0.061588
    25094.102900       0.058989
    25157.232700       0.056388
    25220.681000       0.053786
    25284.450100       0.051183
    25348.542500       0.048580
    25412.960600       0.045978
    25477.707000       0.043377
