29,   29, MVIRI VIS channel from srf_MET5_1994303_1994304_1801-Release_S10EL_10.dat
Number of data points:
806
Wavenumber (cm-1)   Filter response
     8350.730700       0.000000
     8357.710000       0.000000
     8364.701000       0.000000
     8371.703600       0.000001
     8378.718100       0.000004
     8385.744200       0.000009
     8392.782200       0.000016
     8399.832000       0.000026
     8406.893700       0.000040
     8413.967200       0.000058
     8421.052600       0.000081
     8428.150000       0.000109
     8435.259400       0.000142
     8442.380800       0.000181
     8449.514200       0.000226
     8456.659600       0.000279
     8463.817200       0.000338
     8470.986900       0.000405
     8478.168700       0.000479
     8485.362700       0.000562
     8492.569000       0.000653
     8499.787500       0.000753
     8507.018300       0.000863
     8514.261400       0.000982
     8521.516800       0.001110
     8528.784600       0.001249
     8536.064900       0.001398
     8543.357500       0.001557
     8550.662700       0.001728
     8557.980300       0.001909
     8565.310500       0.002102
     8572.653200       0.002307
     8580.008600       0.002523
     8587.376600       0.002751
     8594.757200       0.002992
     8602.150500       0.003245
     8609.556600       0.003511
     8616.975400       0.003789
     8624.407100       0.004081
     8631.851500       0.004386
     8639.308900       0.004704
     8646.779100       0.005035
     8654.262200       0.005381
     8661.758300       0.005740
     8669.267400       0.006114
     8676.789600       0.006501
     8684.324800       0.006904
     8691.873100       0.007320
     8699.434500       0.007751
     8707.009100       0.008198
     8714.596900       0.008659
     8722.198000       0.009135
     8729.812300       0.009626
     8737.439900       0.010133
     8745.080900       0.010656
     8752.735200       0.011194
     8760.403000       0.011747
     8768.084200       0.012317
     8775.778900       0.012903
     8783.487000       0.013504
     8791.208800       0.014122
     8798.944100       0.014757
     8806.693100       0.015408
     8814.455700       0.016075
     8822.232000       0.016759
     8830.022100       0.017460
     8837.825900       0.018179
     8845.643500       0.018914
     8853.475000       0.019666
     8861.320300       0.020435
     8869.179600       0.021222
     8877.052800       0.022027
     8884.940000       0.022849
     8892.841300       0.023688
     8900.756600       0.024546
     8908.686000       0.025421
     8916.629500       0.026315
     8924.587200       0.027227
     8932.559200       0.028157
     8940.545400       0.029105
     8948.545900       0.030072
     8956.560700       0.031057
     8964.589900       0.032061
     8972.633500       0.033083
     8980.691500       0.034125
     8988.764000       0.035185
     8996.851100       0.036265
     9004.952700       0.037363
     9013.068900       0.038481
     9021.199800       0.039619
     9029.345400       0.040775
     9037.505600       0.041952
     9045.680700       0.043148
     9053.870500       0.044364
     9062.075200       0.045599
     9070.294800       0.046855
     9078.529300       0.048131
     9086.778700       0.049427
     9095.043200       0.050743
     9103.322700       0.052079
     9111.617300       0.053436
     9119.927000       0.054813
     9128.251900       0.056212
     9136.592100       0.057630
     9144.947400       0.059070
     9153.318100       0.060531
     9161.704100       0.062012
     9170.105500       0.063515
     9178.522300       0.065039
     9186.954500       0.066584
     9195.402300       0.068150
     9203.865600       0.069738
     9212.344500       0.071348
     9220.839100       0.072979
     9229.349300       0.074632
     9237.875300       0.076306
     9246.417000       0.078003
     9254.974500       0.079721
     9263.547900       0.081462
     9272.137200       0.083224
     9280.742500       0.085009
     9289.363700       0.086816
     9298.000900       0.088645
     9306.654300       0.090497
     9315.323700       0.092371
     9324.009300       0.094268
     9332.711200       0.096187
     9341.429200       0.098129
     9350.163600       0.100094
     9358.914400       0.102081
     9367.681500       0.104092
     9376.465100       0.106125
     9385.265100       0.108181
     9394.081700       0.110261
     9402.914900       0.112363
     9411.764700       0.114488
     9420.631200       0.116637
     9429.514400       0.118809
     9438.414300       0.121004
     9447.331100       0.123222
     9456.264800       0.125464
     9465.215300       0.127729
     9474.182900       0.130017
     9483.167400       0.132329
     9492.169000       0.134663
     9501.187600       0.137022
     9510.223500       0.139404
     9519.276500       0.141810
     9528.346800       0.144239
     9537.434400       0.146691
     9546.539400       0.149167
     9555.661700       0.151667
     9564.801500       0.154190
     9573.958800       0.156737
     9583.133700       0.159307
     9592.326100       0.161900
     9601.536200       0.164518
     9610.764100       0.167158
     9620.009600       0.169822
     9629.273000       0.172510
     9638.554200       0.175220
     9647.853400       0.177955
     9657.170400       0.180712
     9666.505600       0.183493
     9675.858700       0.186298
     9685.230000       0.189125
     9694.619500       0.191976
     9704.027200       0.194849
     9713.453100       0.197746
     9722.897400       0.200666
     9732.360100       0.203609
     9741.841200       0.206575
     9751.340800       0.209563
     9760.859000       0.212574
     9770.395700       0.215609
     9779.951100       0.218665
     9789.525200       0.221744
     9799.118100       0.224846
     9808.729800       0.227969
     9818.360300       0.231115
     9828.009800       0.234283
     9837.678300       0.237474
     9847.365800       0.240686
     9857.072400       0.243919
     9866.798200       0.247175
     9876.543200       0.250452
     9886.307500       0.253750
     9896.091000       0.257070
     9905.894000       0.260411
     9915.716400       0.263773
     9925.558300       0.267156
     9935.419800       0.270559
     9945.300800       0.273984
     9955.201600       0.277428
     9965.122100       0.280893
     9975.062300       0.284378
     9985.022500       0.287883
     9995.002500       0.291407
    10005.002500       0.294952
    10015.022500       0.298515
    10025.062700       0.302098
    10035.122900       0.305700
    10045.203400       0.309320
    10055.304200       0.312960
    10065.425300       0.316617
    10075.566800       0.320293
    10085.728700       0.323987
    10095.911200       0.327699
    10106.114200       0.331429
    10116.337900       0.335175
    10126.582300       0.338939
    10136.847400       0.342720
    10147.133400       0.346517
    10157.440300       0.350331
    10167.768200       0.354161
    10178.117000       0.358007
    10188.487000       0.361869
    10198.878100       0.365746
    10209.290500       0.369639
    10219.724100       0.373546
    10230.179000       0.377468
    10240.655400       0.381404
    10251.153300       0.385355
    10261.672700       0.389319
    10272.213700       0.393297
    10282.776300       0.397288
    10293.360800       0.401292
    10303.967000       0.405309
    10314.595200       0.409338
    10325.245200       0.413379
    10335.917300       0.417433
    10346.611500       0.421497
    10357.327800       0.425573
    10368.066400       0.429660
    10378.827200       0.433757
    10389.610400       0.437865
    10400.416000       0.441982
    10411.244100       0.446109
    10422.094800       0.450246
    10432.968200       0.454391
    10443.864200       0.458545
    10454.783100       0.462707
    10465.724800       0.466877
    10476.689400       0.471055
    10487.677000       0.475240
    10498.687700       0.479432
    10509.721500       0.483630
    10520.778500       0.487835
    10531.858900       0.492045
    10542.962600       0.496262
    10554.089700       0.500483
    10565.240400       0.504709
    10576.414600       0.508939
    10587.612500       0.513173
    10598.834100       0.517412
    10610.079600       0.521653
    10621.348900       0.525897
    10632.642200       0.530144
    10643.959600       0.534393
    10655.301000       0.538644
    10666.666700       0.542896
    10678.056600       0.547149
    10689.470900       0.551403
    10700.909600       0.555658
    10712.372800       0.559912
    10723.860600       0.564165
    10735.373100       0.568418
    10746.910300       0.572670
    10758.472300       0.576920
    10770.059200       0.581167
    10781.671200       0.585412
    10793.308100       0.589655
    10804.970300       0.593894
    10816.657700       0.598130
    10828.370300       0.602361
    10840.108400       0.606588
    10851.871900       0.610810
    10863.661100       0.615028
    10875.475800       0.619239
    10887.316300       0.623444
    10899.182600       0.627643
    10911.074700       0.631835
    10922.992900       0.636020
    10934.937100       0.640197
    10946.907500       0.644366
    10958.904100       0.648527
    10970.927000       0.652679
    10982.976400       0.656822
    10995.052200       0.660955
    11007.154700       0.665078
    11019.283700       0.669191
    11031.439600       0.673293
    11043.622300       0.677383
    11055.832000       0.681462
    11068.068600       0.685529
    11080.332400       0.689584
    11092.623400       0.693625
    11104.941700       0.697654
    11117.287400       0.701669
    11129.660500       0.705670
    11142.061300       0.709657
    11154.489700       0.713629
    11166.945800       0.717586
    11179.429800       0.721527
    11191.941800       0.725452
    11204.481800       0.729361
    11217.049900       0.733254
    11229.646300       0.737129
    11242.270900       0.740987
    11254.924000       0.744828
    11267.605600       0.748650
    11280.315800       0.752453
    11293.054800       0.756238
    11305.822500       0.760003
    11318.619100       0.763749
    11331.444800       0.767475
    11344.299500       0.771180
    11357.183400       0.774865
    11370.096600       0.778529
    11383.039300       0.782171
    11396.011400       0.785792
    11409.013100       0.789390
    11422.044500       0.792966
    11435.105800       0.796520
    11448.196900       0.800050
    11461.318100       0.803557
    11474.469300       0.807040
    11487.650800       0.810499
    11500.862600       0.813934
    11514.104800       0.817344
    11527.377500       0.820729
    11540.680900       0.824088
    11554.015000       0.827422
    11567.380000       0.830730
    11580.775900       0.834012
    11594.202900       0.837267
    11607.661100       0.840496
    11621.150500       0.843697
    11634.671300       0.846871
    11648.223600       0.850017
    11661.807600       0.853135
    11675.423200       0.856225
    11689.070700       0.859287
    11702.750100       0.862320
    11716.461600       0.865323
    11730.205300       0.868298
    11743.981200       0.871243
    11757.789500       0.874158
    11771.630400       0.877044
    11785.503800       0.879899
    11799.410000       0.882723
    11813.349100       0.885517
    11827.321100       0.888280
    11841.326200       0.891012
    11855.364600       0.893713
    11869.436200       0.896382
    11883.541300       0.899019
    11897.680000       0.901625
    11911.852300       0.904198
    11926.058400       0.906739
    11940.298500       0.909248
    11954.572600       0.911724
    11968.880900       0.914167
    11983.223500       0.916577
    11997.600500       0.918954
    12012.012000       0.921298
    12026.458200       0.923609
    12040.939200       0.925885
    12055.455100       0.928129
    12070.006000       0.930338
    12084.592100       0.932513
    12099.213600       0.934654
    12113.870400       0.936762
    12128.562800       0.938834
    12143.290800       0.940873
    12158.054700       0.942877
    12172.854500       0.944846
    12187.690400       0.946781
    12202.562500       0.948681
    12217.471000       0.950546
    12232.415900       0.952376
    12247.397400       0.954172
    12262.415700       0.955932
    12277.470800       0.957657
    12292.563000       0.959348
    12307.692300       0.961003
    12322.858900       0.962623
    12338.062900       0.964208
    12353.304500       0.965757
    12368.583800       0.967272
    12383.900900       0.968751
    12399.256000       0.970195
    12414.649300       0.971604
    12430.080800       0.972978
    12445.550700       0.974317
    12461.059200       0.975620
    12476.606400       0.976889
    12492.192400       0.978122
    12507.817400       0.979320
    12523.481500       0.980484
    12539.185000       0.981612
    12554.927800       0.982706
    12570.710200       0.983765
    12586.532400       0.984789
    12602.394500       0.985778
    12618.296500       0.986733
    12634.238800       0.987654
    12650.221400       0.988540
    12666.244500       0.989392
    12682.308200       0.990209
    12698.412700       0.990993
    12714.558200       0.991743
    12730.744700       0.992459
    12746.972600       0.993141
    12763.241900       0.993790
    12779.552700       0.994406
    12795.905300       0.994988
    12812.299800       0.995538
    12828.736400       0.996054
    12845.215200       0.996538
    12861.736300       0.996989
    12878.300100       0.997408
    12894.906500       0.997795
    12911.555800       0.998149
    12928.248200       0.998472
    12944.983800       0.998763
    12961.762800       0.999023
    12978.585300       0.999252
    12995.451600       0.999450
    13012.361700       0.999617
    13029.316000       0.999754
    13046.314400       0.999860
    13063.357300       0.999936
    13080.444700       0.999983
    13097.576900       1.000000
    13114.754100       0.999988
    13131.976400       0.999947
    13149.243900       0.999877
    13166.556900       0.999778
    13183.915600       0.999652
    13201.320100       0.999497
    13218.770700       0.999315
    13236.267400       0.999105
    13253.810500       0.998869
    13271.400100       0.998605
    13289.036500       0.998316
    13306.719900       0.998000
    13324.450400       0.997658
    13342.228200       0.997291
    13360.053400       0.996898
    13377.926400       0.996481
    13395.847300       0.996039
    13413.816200       0.995573
    13431.833400       0.995083
    13449.899100       0.994569
    13468.013500       0.994033
    13486.176700       0.993473
    13504.388900       0.992891
    13522.650400       0.992287
    13540.961400       0.991661
    13559.322000       0.991014
    13577.732500       0.990345
    13596.193100       0.989656
    13614.703900       0.988947
    13633.265200       0.988217
    13651.877100       0.987468
    13670.540000       0.986700
    13689.253900       0.985913
    13708.019200       0.985108
    13726.836000       0.984284
    13745.704500       0.983443
    13764.624900       0.982585
    13783.597500       0.981710
    13802.622500       0.980818
    13821.700100       0.979911
    13840.830400       0.978987
    13860.013900       0.978049
    13879.250500       0.977095
    13898.540700       0.976127
    13917.884500       0.975145
    13937.282200       0.974150
    13956.734100       0.973141
    13976.240400       0.972119
    13995.801300       0.971085
    14015.417000       0.970039
    14035.087700       0.968982
    14054.813800       0.967913
    14074.595400       0.966834
    14094.432700       0.965744
    14114.326000       0.964644
    14134.275600       0.963535
    14154.281700       0.962417
    14174.344400       0.961290
    14194.464200       0.960155
    14214.641100       0.959012
    14234.875400       0.957862
    14255.167500       0.956705
    14275.517500       0.955541
    14295.925700       0.954371
    14316.392300       0.953195
    14336.917600       0.952014
    14357.501800       0.950829
    14378.145200       0.949638
    14398.848100       0.948444
    14419.610700       0.947246
    14440.433200       0.946045
    14461.316000       0.944841
    14482.259200       0.943634
    14503.263200       0.942426
    14524.328200       0.941216
    14545.454500       0.940004
    14566.642400       0.938792
    14587.892000       0.937580
    14609.203800       0.936367
    14630.577900       0.935155
    14652.014700       0.933944
    14673.514300       0.932734
    14695.077100       0.931525
    14716.703500       0.930319
    14738.393500       0.929114
    14760.147600       0.927913
    14781.966000       0.926714
    14803.849000       0.925519
    14825.796900       0.924328
    14847.809900       0.923141
    14869.888500       0.921958
    14892.032800       0.920780
    14914.243100       0.919608
    14936.519800       0.918441
    14958.863100       0.917280
    14981.273400       0.916125
    15003.750900       0.914977
    15026.296000       0.913836
    15048.909000       0.912702
    15071.590100       0.911575
    15094.339600       0.910457
    15117.158000       0.909347
    15140.045400       0.908245
    15163.002300       0.907152
    15186.028900       0.906068
    15209.125500       0.904994
    15232.292500       0.903929
    15255.530100       0.902874
    15278.838800       0.901830
    15302.218800       0.900795
    15325.670500       0.899772
    15349.194200       0.898760
    15372.790200       0.897759
    15396.458800       0.896769
    15420.200500       0.895792
    15444.015400       0.894826
    15467.904100       0.893872
    15491.866800       0.892931
    15515.903800       0.892002
    15540.015500       0.891087
    15564.202300       0.890184
    15588.464500       0.889294
    15612.802500       0.888418
    15637.216600       0.887555
    15661.707100       0.886706
    15686.274500       0.885871
    15710.919100       0.885050
    15735.641200       0.884244
    15760.441300       0.883451
    15785.319700       0.882673
    15810.276700       0.881909
    15835.312700       0.881160
    15860.428200       0.880426
    15885.623500       0.879706
    15910.899000       0.879002
    15936.255000       0.878312
    15961.691900       0.877638
    15987.210200       0.876978
    16012.810200       0.876334
    16038.492400       0.875705
    16064.257000       0.875091
    16090.104600       0.874493
    16116.035500       0.873910
    16142.050000       0.873342
    16168.148700       0.872789
    16194.332000       0.872251
    16220.600200       0.871729
    16246.953700       0.871222
    16273.393000       0.870730
    16299.918500       0.870253
    16326.530600       0.869791
    16353.229800       0.869344
    16380.016400       0.868912
    16406.890900       0.868495
    16433.853700       0.868092
    16460.905300       0.867704
    16488.046200       0.867330
    16515.276600       0.866971
    16542.597200       0.866625
    16570.008300       0.866294
    16597.510400       0.865977
    16625.103900       0.865673
    16652.789300       0.865382
    16680.567100       0.865105
    16708.437800       0.864841
    16736.401700       0.864590
    16764.459300       0.864351
    16792.611300       0.864125
    16820.857900       0.863911
    16849.199700       0.863708
    16877.637100       0.863518
    16906.170800       0.863338
    16934.801000       0.863170
    16963.528400       0.863012
    16992.353400       0.862865
    17021.276600       0.862728
    17050.298400       0.862600
    17079.419300       0.862482
    17108.639900       0.862373
    17137.960600       0.862272
    17167.382000       0.862180
    17196.904600       0.862096
    17226.528900       0.862019
    17256.255400       0.861950
    17286.084700       0.861887
    17316.017300       0.861830
    17346.053800       0.861779
    17376.194600       0.861733
    17406.440400       0.861692
    17436.791600       0.861656
    17467.248900       0.861623
    17497.812800       0.861594
    17528.483800       0.861568
    17559.262500       0.861544
    17590.149500       0.861522
    17621.145400       0.861502
    17652.250700       0.861482
    17683.466000       0.861462
    17714.791900       0.861442
    17746.228900       0.861422
    17777.777800       0.861399
    17809.439000       0.861375
    17841.213200       0.861347
    17873.101000       0.861317
    17905.103000       0.861282
    17937.219700       0.861243
    17969.451900       0.861199
    18001.800200       0.861148
    18034.265100       0.861091
    18066.847300       0.861027
    18099.547500       0.860955
    18132.366300       0.860874
    18165.304300       0.860784
    18198.362100       0.860684
    18231.540600       0.860573
    18264.840200       0.860451
    18298.261700       0.860316
    18331.805700       0.860168
    18365.472900       0.860007
    18399.264000       0.859831
    18433.179700       0.859639
    18467.220700       0.859432
    18501.387600       0.859208
    18535.681200       0.858966
    18570.102100       0.858705
    18604.651200       0.858425
    18639.329000       0.858126
    18674.136300       0.857805
    18709.073900       0.857462
    18744.142500       0.857097
    18779.342700       0.856709
    18814.675400       0.856296
    18850.141400       0.855858
    18885.741300       0.855394
    18921.475900       0.854903
    18957.346000       0.854384
    18993.352300       0.853837
    19029.495700       0.853260
    19065.776900       0.852653
    19102.196800       0.852014
    19138.756000       0.851343
    19175.455400       0.850639
    19212.295900       0.849901
    19249.278200       0.849128
    19286.403100       0.848319
    19323.671500       0.847473
    19361.084200       0.846590
    19398.642100       0.845668
    19436.346000       0.844706
    19474.196700       0.843703
    19512.195100       0.842659
    19550.342100       0.841573
    19588.638600       0.840444
    19627.085400       0.839270
    19665.683400       0.838050
    19704.433500       0.836785
    19743.336600       0.835472
    19782.393700       0.834112
    19821.605600       0.832702
    19860.973200       0.831243
    19900.497500       0.829732
    19940.179500       0.828170
    19980.020000       0.826554
    20020.020000       0.824885
    20060.180500       0.823161
    20100.502500       0.821382
    20140.986900       0.819546
    20181.634700       0.817652
    20222.446900       0.815700
    20263.424500       0.813689
    20304.568500       0.811617
    20345.880000       0.809484
    20387.359800       0.807289
    20429.009200       0.805031
    20470.829100       0.802709
    20512.820500       0.800322
    20554.984600       0.797869
    20597.322300       0.795350
    20639.834900       0.792762
    20682.523300       0.790107
    20725.388600       0.787382
    20768.432000       0.784587
    20811.654500       0.781721
    20855.057400       0.778783
    20898.641600       0.775773
    20942.408400       0.772689
    20986.358900       0.769530
    21030.494200       0.766296
    21074.815600       0.762987
    21119.324200       0.759600
    21164.021200       0.756136
    21208.907700       0.752594
    21253.985100       0.748973
    21299.254500       0.745272
    21344.717200       0.741490
    21390.374300       0.737627
    21436.227200       0.733682
    21482.277100       0.729655
    21528.525300       0.725544
    21574.973000       0.721349
    21621.621600       0.717069
    21668.472400       0.712705
    21715.526600       0.708254
    21762.785600       0.703717
    21810.250800       0.699093
    21857.923500       0.694382
    21905.805000       0.689582
    21953.896800       0.684694
    22002.200200       0.679716
    22050.716600       0.674649
    22099.447500       0.669492
    22148.394200       0.664244
    22197.558300       0.658906
    22246.941000       0.653476
    22296.544000       0.647954
    22346.368700       0.642341
    22396.416600       0.636635
    22446.689100       0.630836
    22497.187900       0.624945
    22547.914300       0.618960
    22598.870100       0.612882
    22650.056600       0.606710
    22701.475600       0.600444
    22753.128600       0.594085
    22805.017100       0.587631
    22857.142900       0.581084
    22909.507400       0.574442
    22962.112500       0.567706
    23014.959700       0.560876
    23068.050700       0.553951
    23121.387300       0.546933
    23174.971000       0.539820
    23228.803700       0.532614
    23282.887100       0.525314
    23337.222900       0.517920
    23391.812900       0.510433
    23446.658900       0.502853
    23501.762600       0.495180
    23557.126000       0.487415
    23612.750900       0.479558
    23668.639100       0.471609
    23724.792400       0.463569
    23781.212800       0.455439
    23837.902300       0.447218
    23894.862600       0.438908
    23952.095800       0.430508
    24009.603800       0.422021
    24067.388700       0.413445
    24125.452400       0.404783
    24183.796900       0.396035
    24242.424200       0.387202
    24301.336600       0.378284
    24360.535900       0.369282
    24420.024400       0.360198
    24479.804200       0.351032
    24539.877300       0.341786
    24600.246000       0.332461
    24660.912500       0.323057
    24721.878900       0.313576
    24783.147500       0.304020
    24844.720500       0.294388
    24906.600200       0.284684
    24968.789000       0.274908
    25031.289100       0.265061
    25094.102900       0.255146
    25157.232700       0.245163
    25220.681000       0.235114
    25284.450100       0.225002
    25348.542500       0.214827
    25412.960600       0.204592
    25477.707000       0.194298
