54,   54, MVIRI VIS channel from srf_MET7_2004123_2004124_1801-Release_S10EE_10.dat
Number of data points:
793
Wavenumber (cm-1)   Filter response
     8442.380800       0.000000
     8449.514200       0.000000
     8456.659600       0.000004
     8463.817200       0.000054
     8470.986900       0.000161
     8478.168700       0.000322
     8485.362700       0.000536
     8492.569000       0.000802
     8499.787500       0.001117
     8507.018300       0.001481
     8514.261400       0.001892
     8521.516800       0.002349
     8528.784600       0.002851
     8536.064900       0.003395
     8543.357500       0.003982
     8550.662700       0.004609
     8557.980300       0.005276
     8565.310500       0.005982
     8572.653200       0.006726
     8580.008600       0.007506
     8587.376600       0.008322
     8594.757200       0.009173
     8602.150500       0.010058
     8609.556600       0.010976
     8616.975400       0.011926
     8624.407100       0.012907
     8631.851500       0.013920
     8639.308900       0.014963
     8646.779100       0.016035
     8654.262200       0.017136
     8661.758300       0.018265
     8669.267400       0.019421
     8676.789600       0.020605
     8684.324800       0.021816
     8691.873100       0.023052
     8699.434500       0.024314
     8707.009100       0.025601
     8714.596900       0.026913
     8722.198000       0.028249
     8729.812300       0.029609
     8737.439900       0.030993
     8745.080900       0.032400
     8752.735200       0.033830
     8760.403000       0.035283
     8768.084200       0.036758
     8775.778900       0.038256
     8783.487000       0.039775
     8791.208800       0.041316
     8798.944100       0.042879
     8806.693100       0.044463
     8814.455700       0.046069
     8822.232000       0.047695
     8830.022100       0.049342
     8837.825900       0.051011
     8845.643500       0.052700
     8853.475000       0.054409
     8861.320300       0.056140
     8869.179600       0.057890
     8877.052800       0.059662
     8884.940000       0.061453
     8892.841300       0.063265
     8900.756600       0.065098
     8908.686000       0.066950
     8916.629500       0.068823
     8924.587200       0.070717
     8932.559200       0.072631
     8940.545400       0.074565
     8948.545900       0.076520
     8956.560700       0.078494
     8964.589900       0.080490
     8972.633500       0.082506
     8980.691500       0.084543
     8988.764000       0.086600
     8996.851100       0.088678
     9004.952700       0.090777
     9013.068900       0.092897
     9021.199800       0.095038
     9029.345400       0.097199
     9037.505600       0.099382
     9045.680700       0.101586
     9053.870500       0.103811
     9062.075200       0.106057
     9070.294800       0.108326
     9078.529300       0.110615
     9086.778700       0.112926
     9095.043200       0.115259
     9103.322700       0.117613
     9111.617300       0.119990
     9119.927000       0.122388
     9128.251900       0.124809
     9136.592100       0.127251
     9144.947400       0.129716
     9153.318100       0.132204
     9161.704100       0.134713
     9170.105500       0.137245
     9178.522300       0.139800
     9186.954500       0.142378
     9195.402300       0.144978
     9203.865600       0.147601
     9212.344500       0.150247
     9220.839100       0.152916
     9229.349300       0.155608
     9237.875300       0.158324
     9246.417000       0.161062
     9254.974500       0.163824
     9263.547900       0.166609
     9272.137200       0.169417
     9280.742500       0.172249
     9289.363700       0.175103
     9298.000900       0.177982
     9306.654300       0.180884
     9315.323700       0.183810
     9324.009300       0.186759
     9332.711200       0.189732
     9341.429200       0.192729
     9350.163600       0.195749
     9358.914400       0.198792
     9367.681500       0.201860
     9376.465100       0.204951
     9385.265100       0.208065
     9394.081700       0.211203
     9402.914900       0.214365
     9411.764700       0.217550
     9420.631200       0.220759
     9429.514400       0.223991
     9438.414300       0.227247
     9447.331100       0.230525
     9456.264800       0.233828
     9465.215300       0.237153
     9474.182900       0.240502
     9483.167400       0.243874
     9492.169000       0.247268
     9501.187600       0.250686
     9510.223500       0.254127
     9519.276500       0.257590
     9528.346800       0.261076
     9537.434400       0.264584
     9546.539400       0.268115
     9555.661700       0.271668
     9564.801500       0.275243
     9573.958800       0.278841
     9583.133700       0.282460
     9592.326100       0.286100
     9601.536200       0.289763
     9610.764100       0.293446
     9620.009600       0.297152
     9629.273000       0.300878
     9638.554200       0.304624
     9647.853400       0.308392
     9657.170400       0.312179
     9666.505600       0.315988
     9675.858700       0.319816
     9685.230000       0.323664
     9694.619500       0.327532
     9704.027200       0.331419
     9713.453100       0.335325
     9722.897400       0.339251
     9732.360100       0.343194
     9741.841200       0.347157
     9751.340800       0.351137
     9760.859000       0.355136
     9770.395700       0.359152
     9779.951100       0.363185
     9789.525200       0.367236
     9799.118100       0.371303
     9808.729800       0.375387
     9818.360300       0.379487
     9828.009800       0.383602
     9837.678300       0.387734
     9847.365800       0.391881
     9857.072400       0.396043
     9866.798200       0.400219
     9876.543200       0.404410
     9886.307500       0.408615
     9896.091000       0.412834
     9905.894000       0.417065
     9915.716400       0.421310
     9925.558300       0.425567
     9935.419800       0.429837
     9945.300800       0.434118
     9955.201600       0.438411
     9965.122100       0.442715
     9975.062300       0.447030
     9985.022500       0.451356
     9995.002500       0.455691
    10005.002500       0.460036
    10015.022500       0.464390
    10025.062700       0.468753
    10035.122900       0.473125
    10045.203400       0.477504
    10055.304200       0.481892
    10065.425300       0.486286
    10075.566800       0.490687
    10085.728700       0.495095
    10095.911200       0.499509
    10106.114200       0.503928
    10116.337900       0.508352
    10126.582300       0.512781
    10136.847400       0.517214
    10147.133400       0.521652
    10157.440300       0.526092
    10167.768200       0.530536
    10178.117000       0.534982
    10188.487000       0.539430
    10198.878100       0.543880
    10209.290500       0.548331
    10219.724100       0.552783
    10230.179000       0.557235
    10240.655400       0.561687
    10251.153300       0.566138
    10261.672700       0.570588
    10272.213700       0.575036
    10282.776300       0.579483
    10293.360800       0.583928
    10303.967000       0.588369
    10314.595200       0.592807
    10325.245200       0.597241
    10335.917300       0.601671
    10346.611500       0.606096
    10357.327800       0.610515
    10368.066400       0.614930
    10378.827200       0.619337
    10389.610400       0.623739
    10400.416000       0.628133
    10411.244100       0.632520
    10422.094800       0.636899
    10432.968200       0.641269
    10443.864200       0.645630
    10454.783100       0.649982
    10465.724800       0.654324
    10476.689400       0.658656
    10487.677000       0.662977
    10498.687700       0.667286
    10509.721500       0.671584
    10520.778500       0.675870
    10531.858900       0.680143
    10542.962600       0.684403
    10554.089700       0.688649
    10565.240400       0.692882
    10576.414600       0.697099
    10587.612500       0.701302
    10598.834100       0.705490
    10610.079600       0.709662
    10621.348900       0.713818
    10632.642200       0.717957
    10643.959600       0.722079
    10655.301000       0.726183
    10666.666700       0.730269
    10678.056600       0.734337
    10689.470900       0.738385
    10700.909600       0.742415
    10712.372800       0.746425
    10723.860600       0.750414
    10735.373100       0.754383
    10746.910300       0.758332
    10758.472300       0.762258
    10770.059200       0.766163
    10781.671200       0.770046
    10793.308100       0.773906
    10804.970300       0.777743
    10816.657700       0.781556
    10828.370300       0.785346
    10840.108400       0.789112
    10851.871900       0.792852
    10863.661100       0.796569
    10875.475800       0.800259
    10887.316300       0.803924
    10899.182600       0.807563
    10911.074700       0.811175
    10922.992900       0.814760
    10934.937100       0.818319
    10946.907500       0.821849
    10958.904100       0.825352
    10970.927000       0.828827
    10982.976400       0.832273
    10995.052200       0.835690
    11007.154700       0.839078
    11019.283700       0.842436
    11031.439600       0.845765
    11043.622300       0.849063
    11055.832000       0.852331
    11068.068600       0.855568
    11080.332400       0.858774
    11092.623400       0.861948
    11104.941700       0.865091
    11117.287400       0.868202
    11129.660500       0.871280
    11142.061300       0.874326
    11154.489700       0.877339
    11166.945800       0.880320
    11179.429800       0.883267
    11191.941800       0.886180
    11204.481800       0.889060
    11217.049900       0.891905
    11229.646300       0.894716
    11242.270900       0.897493
    11254.924000       0.900235
    11267.605600       0.902942
    11280.315800       0.905614
    11293.054800       0.908251
    11305.822500       0.910852
    11318.619100       0.913418
    11331.444800       0.915947
    11344.299500       0.918441
    11357.183400       0.920898
    11370.096600       0.923319
    11383.039300       0.925703
    11396.011400       0.928050
    11409.013100       0.930361
    11422.044500       0.932635
    11435.105800       0.934871
    11448.196900       0.937070
    11461.318100       0.939232
    11474.469300       0.941356
    11487.650800       0.943443
    11500.862600       0.945492
    11514.104800       0.947503
    11527.377500       0.949476
    11540.680900       0.951412
    11554.015000       0.953309
    11567.380000       0.955168
    11580.775900       0.956989
    11594.202900       0.958772
    11607.661100       0.960516
    11621.150500       0.962223
    11634.671300       0.963890
    11648.223600       0.965520
    11661.807600       0.967111
    11675.423200       0.968663
    11689.070700       0.970178
    11702.750100       0.971654
    11716.461600       0.973091
    11730.205300       0.974490
    11743.981200       0.975851
    11757.789500       0.977173
    11771.630400       0.978457
    11785.503800       0.979703
    11799.410000       0.980910
    11813.349100       0.982079
    11827.321100       0.983211
    11841.326200       0.984304
    11855.364600       0.985359
    11869.436200       0.986376
    11883.541300       0.987356
    11897.680000       0.988297
    11911.852300       0.989201
    11926.058400       0.990068
    11940.298500       0.990897
    11954.572600       0.991689
    11968.880900       0.992444
    11983.223500       0.993162
    11997.600500       0.993843
    12012.012000       0.994487
    12026.458200       0.995094
    12040.939200       0.995665
    12055.455100       0.996200
    12070.006000       0.996699
    12084.592100       0.997162
    12099.213600       0.997589
    12113.870400       0.997980
    12128.562800       0.998337
    12143.290800       0.998658
    12158.054700       0.998944
    12172.854500       0.999195
    12187.690400       0.999412
    12202.562500       0.999594
    12217.471000       0.999742
    12232.415900       0.999857
    12247.397400       0.999938
    12262.415700       0.999986
    12277.470800       1.000000
    12292.563000       0.999982
    12307.692300       0.999931
    12322.858900       0.999847
    12338.062900       0.999732
    12353.304500       0.999585
    12368.583800       0.999407
    12383.900900       0.999197
    12399.256000       0.998956
    12414.649300       0.998685
    12430.080800       0.998384
    12445.550700       0.998052
    12461.059200       0.997691
    12476.606400       0.997300
    12492.192400       0.996881
    12507.817400       0.996433
    12523.481500       0.995956
    12539.185000       0.995451
    12554.927800       0.994919
    12570.710200       0.994360
    12586.532400       0.993773
    12602.394500       0.993160
    12618.296500       0.992520
    12634.238800       0.991855
    12650.221400       0.991164
    12666.244500       0.990448
    12682.308200       0.989707
    12698.412700       0.988941
    12714.558200       0.988152
    12730.744700       0.987339
    12746.972600       0.986502
    12763.241900       0.985643
    12779.552700       0.984761
    12795.905300       0.983858
    12812.299800       0.982932
    12828.736400       0.981985
    12845.215200       0.981018
    12861.736300       0.980030
    12878.300100       0.979022
    12894.906500       0.977994
    12911.555800       0.976947
    12928.248200       0.975881
    12944.983800       0.974797
    12961.762800       0.973695
    12978.585300       0.972576
    12995.451600       0.971439
    13012.361700       0.970286
    13029.316000       0.969116
    13046.314400       0.967931
    13063.357300       0.966730
    13080.444700       0.965515
    13097.576900       0.964285
    13114.754100       0.963041
    13131.976400       0.961784
    13149.243900       0.960513
    13166.556900       0.959230
    13183.915600       0.957934
    13201.320100       0.956627
    13218.770700       0.955308
    13236.267400       0.953979
    13253.810500       0.952638
    13271.400100       0.951288
    13289.036500       0.949929
    13306.719900       0.948560
    13324.450400       0.947183
    13342.228200       0.945798
    13360.053400       0.944405
    13377.926400       0.943004
    13395.847300       0.941597
    13413.816200       0.940183
    13431.833400       0.938764
    13449.899100       0.937339
    13468.013500       0.935909
    13486.176700       0.934474
    13504.388900       0.933036
    13522.650400       0.931593
    13540.961400       0.930148
    13559.322000       0.928699
    13577.732500       0.927248
    13596.193100       0.925796
    13614.703900       0.924342
    13633.265200       0.922886
    13651.877100       0.921431
    13670.540000       0.919975
    13689.253900       0.918519
    13708.019200       0.917064
    13726.836000       0.915611
    13745.704500       0.914158
    13764.624900       0.912708
    13783.597500       0.911260
    13802.622500       0.909815
    13821.700100       0.908374
    13840.830400       0.906936
    13860.013900       0.905502
    13879.250500       0.904072
    13898.540700       0.902648
    13917.884500       0.901228
    13937.282200       0.899815
    13956.734100       0.898407
    13976.240400       0.897006
    13995.801300       0.895612
    14015.417000       0.894225
    14035.087700       0.892846
    14054.813800       0.891474
    14074.595400       0.890111
    14094.432700       0.888757
    14114.326000       0.887412
    14134.275600       0.886076
    14154.281700       0.884750
    14174.344400       0.883434
    14194.464200       0.882129
    14214.641100       0.880835
    14234.875400       0.879551
    14255.167500       0.878280
    14275.517500       0.877020
    14295.925700       0.875772
    14316.392300       0.874537
    14336.917600       0.873314
    14357.501800       0.872105
    14378.145200       0.870909
    14398.848100       0.869726
    14419.610700       0.868558
    14440.433200       0.867404
    14461.316000       0.866264
    14482.259200       0.865139
    14503.263200       0.864029
    14524.328200       0.862934
    14545.454500       0.861855
    14566.642400       0.860792
    14587.892000       0.859744
    14609.203800       0.858713
    14630.577900       0.857698
    14652.014700       0.856700
    14673.514300       0.855719
    14695.077100       0.854755
    14716.703500       0.853808
    14738.393500       0.852879
    14760.147600       0.851967
    14781.966000       0.851073
    14803.849000       0.850197
    14825.796900       0.849340
    14847.809900       0.848500
    14869.888500       0.847679
    14892.032800       0.846877
    14914.243100       0.846093
    14936.519800       0.845328
    14958.863100       0.844582
    14981.273400       0.843855
    15003.750900       0.843146
    15026.296000       0.842458
    15048.909000       0.841788
    15071.590100       0.841138
    15094.339600       0.840507
    15117.158000       0.839896
    15140.045400       0.839304
    15163.002300       0.838732
    15186.028900       0.838179
    15209.125500       0.837646
    15232.292500       0.837132
    15255.530100       0.836638
    15278.838800       0.836164
    15302.218800       0.835709
    15325.670500       0.835274
    15349.194200       0.834858
    15372.790200       0.834462
    15396.458800       0.834085
    15420.200500       0.833727
    15444.015400       0.833389
    15467.904100       0.833070
    15491.866800       0.832770
    15515.903800       0.832488
    15540.015500       0.832226
    15564.202300       0.831983
    15588.464500       0.831758
    15612.802500       0.831552
    15637.216600       0.831364
    15661.707100       0.831194
    15686.274500       0.831043
    15710.919100       0.830909
    15735.641200       0.830793
    15760.441300       0.830694
    15785.319700       0.830613
    15810.276700       0.830548
    15835.312700       0.830501
    15860.428200       0.830470
    15885.623500       0.830456
    15910.899000       0.830457
    15936.255000       0.830475
    15961.691900       0.830508
    15987.210200       0.830556
    16012.810200       0.830620
    16038.492400       0.830698
    16064.257000       0.830790
    16090.104600       0.830897
    16116.035500       0.831017
    16142.050000       0.831151
    16168.148700       0.831298
    16194.332000       0.831457
    16220.600200       0.831629
    16246.953700       0.831813
    16273.393000       0.832009
    16299.918500       0.832215
    16326.530600       0.832433
    16353.229800       0.832660
    16380.016400       0.832898
    16406.890900       0.833145
    16433.853700       0.833402
    16460.905300       0.833667
    16488.046200       0.833940
    16515.276600       0.834220
    16542.597200       0.834508
    16570.008300       0.834803
    16597.510400       0.835104
    16625.103900       0.835410
    16652.789300       0.835722
    16680.567100       0.836039
    16708.437800       0.836359
    16736.401700       0.836683
    16764.459300       0.837011
    16792.611300       0.837340
    16820.857900       0.837672
    16849.199700       0.838005
    16877.637100       0.838339
    16906.170800       0.838673
    16934.801000       0.839006
    16963.528400       0.839339
    16992.353400       0.839669
    17021.276600       0.839998
    17050.298400       0.840324
    17079.419300       0.840646
    17108.639900       0.840964
    17137.960600       0.841277
    17167.382000       0.841585
    17196.904600       0.841886
    17226.528900       0.842181
    17256.255400       0.842468
    17286.084700       0.842746
    17316.017300       0.843016
    17346.053800       0.843277
    17376.194600       0.843527
    17406.440400       0.843766
    17436.791600       0.843993
    17467.248900       0.844208
    17497.812800       0.844409
    17528.483800       0.844597
    17559.262500       0.844769
    17590.149500       0.844927
    17621.145400       0.845068
    17652.250700       0.845192
    17683.466000       0.845299
    17714.791900       0.845387
    17746.228900       0.845455
    17777.777800       0.845504
    17809.439000       0.845532
    17841.213200       0.845538
    17873.101000       0.845522
    17905.103000       0.845483
    17937.219700       0.845419
    17969.451900       0.845331
    18001.800200       0.845217
    18034.265100       0.845077
    18066.847300       0.844910
    18099.547500       0.844715
    18132.366300       0.844490
    18165.304300       0.844236
    18198.362100       0.843952
    18231.540600       0.843636
    18264.840200       0.843289
    18298.261700       0.842908
    18331.805700       0.842493
    18365.472900       0.842044
    18399.264000       0.841560
    18433.179700       0.841039
    18467.220700       0.840482
    18501.387600       0.839886
    18535.681200       0.839252
    18570.102100       0.838578
    18604.651200       0.837864
    18639.329000       0.837109
    18674.136300       0.836312
    18709.073900       0.835472
    18744.142500       0.834589
    18779.342700       0.833661
    18814.675400       0.832688
    18850.141400       0.831669
    18885.741300       0.830603
    18921.475900       0.829489
    18957.346000       0.828327
    18993.352300       0.827116
    19029.495700       0.825856
    19065.776900       0.824544
    19102.196800       0.823181
    19138.756000       0.821765
    19175.455400       0.820297
    19212.295900       0.818775
    19249.278200       0.817198
    19286.403100       0.815566
    19323.671500       0.813878
    19361.084200       0.812133
    19398.642100       0.810331
    19436.346000       0.808471
    19474.196700       0.806552
    19512.195100       0.804574
    19550.342100       0.802535
    19588.638600       0.800435
    19627.085400       0.798274
    19665.683400       0.796051
    19704.433500       0.793764
    19743.336600       0.791415
    19782.393700       0.789001
    19821.605600       0.786523
    19860.973200       0.783979
    19900.497500       0.781370
    19940.179500       0.778694
    19980.020000       0.775952
    20020.020000       0.773142
    20060.180500       0.770264
    20100.502500       0.767317
    20140.986900       0.764301
    20181.634700       0.761217
    20222.446900       0.758062
    20263.424500       0.754837
    20304.568500       0.751541
    20345.880000       0.748174
    20387.359800       0.744735
    20429.009200       0.741224
    20470.829100       0.737642
    20512.820500       0.733986
    20554.984600       0.730258
    20597.322300       0.726457
    20639.834900       0.722582
    20682.523300       0.718634
    20725.388600       0.714611
    20768.432000       0.710515
    20811.654500       0.706344
    20855.057400       0.702099
    20898.641600       0.697780
    20942.408400       0.693386
    20986.358900       0.688917
    21030.494200       0.684373
    21074.815600       0.679755
    21119.324200       0.675062
    21164.021200       0.670294
    21208.907700       0.665451
    21253.985100       0.660534
    21299.254500       0.655542
    21344.717200       0.650476
    21390.374300       0.645336
    21436.227200       0.640123
    21482.277100       0.634835
    21528.525300       0.629474
    21574.973000       0.624039
    21621.621600       0.618532
    21668.472400       0.612953
    21715.526600       0.607302
    21762.785600       0.601579
    21810.250800       0.595785
    21857.923500       0.589920
    21905.805000       0.583985
    21953.896800       0.577981
    22002.200200       0.571908
    22050.716600       0.565768
    22099.447500       0.559559
    22148.394200       0.553284
    22197.558300       0.546943
    22246.941000       0.540537
    22296.544000       0.534066
    22346.368700       0.527533
    22396.416600       0.520937
    22446.689100       0.514279
    22497.187900       0.507561
    22547.914300       0.500784
    22598.870100       0.493949
    22650.056600       0.487057
    22701.475600       0.480109
    22753.128600       0.473107
    22805.017100       0.466052
    22857.142900       0.458945
    22909.507400       0.451787
    22962.112500       0.444581
    23014.959700       0.437327
    23068.050700       0.430028
    23121.387300       0.422684
    23174.971000       0.415298
    23228.803700       0.407871
    23282.887100       0.400406
    23337.222900       0.392903
    23391.812900       0.385365
    23446.658900       0.377794
    23501.762600       0.370191
    23557.126000       0.362559
    23612.750900       0.354901
    23668.639100       0.347218
    23724.792400       0.339512
    23781.212800       0.331785
    23837.902300       0.324041
    23894.862600       0.316282
    23952.095800       0.308509
    24009.603800       0.300726
    24067.388700       0.292936
    24125.452400       0.285140
    24183.796900       0.277343
    24242.424200       0.269545
    24301.336600       0.261752
    24360.535900       0.253964
    24420.024400       0.246187
    24479.804200       0.238422
    24539.877300       0.230672
    24600.246000       0.222942
    24660.912500       0.215235
    24721.878900       0.207553
    24783.147500       0.199900
    24844.720500       0.192281
    24906.600200       0.184698
    24968.789000       0.177155
    25031.289100       0.169656
    25094.102900       0.162205
    25157.232700       0.154806
    25220.681000       0.147463
    25284.450100       0.140180
    25348.542500       0.132961
    25412.960600       0.125811
    25477.707000       0.118733
