80,   80, MVIRI VIS channel from srf_MET5_2001078_2001079_1801-Release_S10EL_10.dat
Number of data points:
806
Wavenumber (cm-1)   Filter response
     8350.730700       0.000000
     8357.710000       0.000000
     8364.701000       0.000000
     8371.703600       0.000002
     8378.718100       0.000004
     8385.744200       0.000009
     8392.782200       0.000017
     8399.832000       0.000027
     8406.893700       0.000042
     8413.967200       0.000060
     8421.052600       0.000084
     8428.150000       0.000112
     8435.259400       0.000147
     8442.380800       0.000187
     8449.514200       0.000234
     8456.659600       0.000288
     8463.817200       0.000349
     8470.986900       0.000418
     8478.168700       0.000495
     8485.362700       0.000580
     8492.569000       0.000675
     8499.787500       0.000778
     8507.018300       0.000891
     8514.261400       0.001013
     8521.516800       0.001146
     8528.784600       0.001289
     8536.064900       0.001443
     8543.357500       0.001608
     8550.662700       0.001784
     8557.980300       0.001971
     8565.310500       0.002170
     8572.653200       0.002381
     8580.008600       0.002604
     8587.376600       0.002839
     8594.757200       0.003087
     8602.150500       0.003348
     8609.556600       0.003622
     8616.975400       0.003909
     8624.407100       0.004210
     8631.851500       0.004524
     8639.308900       0.004852
     8646.779100       0.005194
     8654.262200       0.005550
     8661.758300       0.005920
     8669.267400       0.006305
     8676.789600       0.006705
     8684.324800       0.007119
     8691.873100       0.007548
     8699.434500       0.007992
     8707.009100       0.008452
     8714.596900       0.008927
     8722.198000       0.009417
     8729.812300       0.009924
     8737.439900       0.010445
     8745.080900       0.010983
     8752.735200       0.011537
     8760.403000       0.012107
     8768.084200       0.012694
     8775.778900       0.013296
     8783.487000       0.013916
     8791.208800       0.014552
     8798.944100       0.015205
     8806.693100       0.015875
     8814.455700       0.016561
     8822.232000       0.017265
     8830.022100       0.017987
     8837.825900       0.018725
     8845.643500       0.019481
     8853.475000       0.020255
     8861.320300       0.021046
     8869.179600       0.021856
     8877.052800       0.022683
     8884.940000       0.023528
     8892.841300       0.024391
     8900.756600       0.025273
     8908.686000       0.026173
     8916.629500       0.027091
     8924.587200       0.028028
     8932.559200       0.028984
     8940.545400       0.029958
     8948.545900       0.030952
     8956.560700       0.031964
     8964.589900       0.032995
     8972.633500       0.034045
     8980.691500       0.035115
     8988.764000       0.036205
     8996.851100       0.037313
     9004.952700       0.038442
     9013.068900       0.039589
     9021.199800       0.040757
     9029.345400       0.041945
     9037.505600       0.043152
     9045.680700       0.044380
     9053.870500       0.045628
     9062.075200       0.046896
     9070.294800       0.048184
     9078.529300       0.049493
     9086.778700       0.050823
     9095.043200       0.052173
     9103.322700       0.053544
     9111.617300       0.054936
     9119.927000       0.056349
     9128.251900       0.057783
     9136.592100       0.059237
     9144.947400       0.060714
     9153.318100       0.062211
     9161.704100       0.063730
     9170.105500       0.065270
     9178.522300       0.066832
     9186.954500       0.068416
     9195.402300       0.070021
     9203.865600       0.071648
     9212.344500       0.073298
     9220.839100       0.074969
     9229.349300       0.076662
     9237.875300       0.078377
     9246.417000       0.080115
     9254.974500       0.081875
     9263.547900       0.083657
     9272.137200       0.085462
     9280.742500       0.087289
     9289.363700       0.089139
     9298.000900       0.091012
     9306.654300       0.092907
     9315.323700       0.094825
     9324.009300       0.096767
     9332.711200       0.098731
     9341.429200       0.100718
     9350.163600       0.102728
     9358.914400       0.104761
     9367.681500       0.106818
     9376.465100       0.108897
     9385.265100       0.111000
     9394.081700       0.113127
     9402.914900       0.115276
     9411.764700       0.117449
     9420.631200       0.119646
     9429.514400       0.121866
     9438.414300       0.124109
     9447.331100       0.126376
     9456.264800       0.128667
     9465.215300       0.130982
     9474.182900       0.133319
     9483.167400       0.135681
     9492.169000       0.138066
     9501.187600       0.140476
     9510.223500       0.142909
     9519.276500       0.145365
     9528.346800       0.147845
     9537.434400       0.150350
     9546.539400       0.152877
     9555.661700       0.155429
     9564.801500       0.158004
     9573.958800       0.160603
     9583.133700       0.163226
     9592.326100       0.165872
     9601.536200       0.168543
     9610.764100       0.171236
     9620.009600       0.173954
     9629.273000       0.176695
     9638.554200       0.179460
     9647.853400       0.182248
     9657.170400       0.185060
     9666.505600       0.187895
     9675.858700       0.190754
     9685.230000       0.193636
     9694.619500       0.196541
     9704.027200       0.199470
     9713.453100       0.202422
     9722.897400       0.205397
     9732.360100       0.208395
     9741.841200       0.211416
     9751.340800       0.214460
     9760.859000       0.217526
     9770.395700       0.220616
     9779.951100       0.223728
     9789.525200       0.226863
     9799.118100       0.230020
     9808.729800       0.233200
     9818.360300       0.236402
     9828.009800       0.239625
     9837.678300       0.242872
     9847.365800       0.246140
     9857.072400       0.249429
     9866.798200       0.252741
     9876.543200       0.256073
     9886.307500       0.259428
     9896.091000       0.262804
     9905.894000       0.266200
     9915.716400       0.269618
     9925.558300       0.273056
     9935.419800       0.276516
     9945.300800       0.279995
     9955.201600       0.283495
     9965.122100       0.287016
     9975.062300       0.290555
     9985.022500       0.294116
     9995.002500       0.297695
    10005.002500       0.301294
    10015.022500       0.304913
    10025.062700       0.308550
    10035.122900       0.312206
    10045.203400       0.315881
    10055.304200       0.319574
    10065.425300       0.323286
    10075.566800       0.327016
    10085.728700       0.330763
    10095.911200       0.334528
    10106.114200       0.338310
    10116.337900       0.342110
    10126.582300       0.345926
    10136.847400       0.349759
    10147.133400       0.353609
    10157.440300       0.357474
    10167.768200       0.361355
    10178.117000       0.365253
    10188.487000       0.369165
    10198.878100       0.373093
    10209.290500       0.377035
    10219.724100       0.380992
    10230.179000       0.384963
    10240.655400       0.388949
    10251.153300       0.392948
    10261.672700       0.396960
    10272.213700       0.400986
    10282.776300       0.405024
    10293.360800       0.409076
    10303.967000       0.413139
    10314.595200       0.417214
    10325.245200       0.421301
    10335.917300       0.425400
    10346.611500       0.429509
    10357.327800       0.433629
    10368.066400       0.437760
    10378.827200       0.441900
    10389.610400       0.446051
    10400.416000       0.450211
    10411.244100       0.454379
    10422.094800       0.458557
    10432.968200       0.462743
    10443.864200       0.466937
    10454.783100       0.471138
    10465.724800       0.475347
    10476.689400       0.479563
    10487.677000       0.483786
    10498.687700       0.488015
    10509.721500       0.492250
    10520.778500       0.496490
    10531.858900       0.500736
    10542.962600       0.504987
    10554.089700       0.509241
    10565.240400       0.513501
    10576.414600       0.517763
    10587.612500       0.522029
    10598.834100       0.526299
    10610.079600       0.530570
    10621.348900       0.534844
    10632.642200       0.539120
    10643.959600       0.543397
    10655.301000       0.547676
    10666.666700       0.551954
    10678.056600       0.556234
    10689.470900       0.560513
    10700.909600       0.564791
    10712.372800       0.569069
    10723.860600       0.573345
    10735.373100       0.577620
    10746.910300       0.581893
    10758.472300       0.586163
    10770.059200       0.590430
    10781.671200       0.594694
    10793.308100       0.598954
    10804.970300       0.603210
    10816.657700       0.607462
    10828.370300       0.611708
    10840.108400       0.615950
    10851.871900       0.620185
    10863.661100       0.624415
    10875.475800       0.628638
    10887.316300       0.632854
    10899.182600       0.637063
    10911.074700       0.641264
    10922.992900       0.645457
    10934.937100       0.649641
    10946.907500       0.653816
    10958.904100       0.657982
    10970.927000       0.662138
    10982.976400       0.666284
    10995.052200       0.670420
    11007.154700       0.674544
    11019.283700       0.678657
    11031.439600       0.682758
    11043.622300       0.686847
    11055.832000       0.690924
    11068.068600       0.694987
    11080.332400       0.699037
    11092.623400       0.703073
    11104.941700       0.707095
    11117.287400       0.711103
    11129.660500       0.715095
    11142.061300       0.719072
    11154.489700       0.723034
    11166.945800       0.726979
    11179.429800       0.730907
    11191.941800       0.734819
    11204.481800       0.738714
    11217.049900       0.742590
    11229.646300       0.746449
    11242.270900       0.750289
    11254.924000       0.754111
    11267.605600       0.757913
    11280.315800       0.761695
    11293.054800       0.765458
    11305.822500       0.769200
    11318.619100       0.772922
    11331.444800       0.776623
    11344.299500       0.780302
    11357.183400       0.783960
    11370.096600       0.787595
    11383.039300       0.791208
    11396.011400       0.794798
    11409.013100       0.798365
    11422.044500       0.801909
    11435.105800       0.805429
    11448.196900       0.808925
    11461.318100       0.812396
    11474.469300       0.815842
    11487.650800       0.819264
    11500.862600       0.822660
    11514.104800       0.826030
    11527.377500       0.829374
    11540.680900       0.832691
    11554.015000       0.835983
    11567.380000       0.839247
    11580.775900       0.842483
    11594.202900       0.845692
    11607.661100       0.848874
    11621.150500       0.852027
    11634.671300       0.855152
    11648.223600       0.858248
    11661.807600       0.861315
    11675.423200       0.864353
    11689.070700       0.867361
    11702.750100       0.870340
    11716.461600       0.873288
    11730.205300       0.876207
    11743.981200       0.879095
    11757.789500       0.881952
    11771.630400       0.884778
    11785.503800       0.887573
    11799.410000       0.890336
    11813.349100       0.893068
    11827.321100       0.895768
    11841.326200       0.898436
    11855.364600       0.901072
    11869.436200       0.903675
    11883.541300       0.906246
    11897.680000       0.908783
    11911.852300       0.911288
    11926.058400       0.913760
    11940.298500       0.916198
    11954.572600       0.918602
    11968.880900       0.920973
    11983.223500       0.923310
    11997.600500       0.925613
    12012.012000       0.927882
    12026.458200       0.930116
    12040.939200       0.932316
    12055.455100       0.934482
    12070.006000       0.936613
    12084.592100       0.938709
    12099.213600       0.940770
    12113.870400       0.942796
    12128.562800       0.944787
    12143.290800       0.946743
    12158.054700       0.948663
    12172.854500       0.950549
    12187.690400       0.952398
    12202.562500       0.954212
    12217.471000       0.955991
    12232.415900       0.957734
    12247.397400       0.959442
    12262.415700       0.961113
    12277.470800       0.962749
    12292.563000       0.964349
    12307.692300       0.965913
    12322.858900       0.967442
    12338.062900       0.968934
    12353.304500       0.970391
    12368.583800       0.971812
    12383.900900       0.973197
    12399.256000       0.974546
    12414.649300       0.975859
    12430.080800       0.977137
    12445.550700       0.978379
    12461.059200       0.979585
    12476.606400       0.980755
    12492.192400       0.981890
    12507.817400       0.982989
    12523.481500       0.984052
    12539.185000       0.985080
    12554.927800       0.986073
    12570.710200       0.987030
    12586.532400       0.987952
    12602.394500       0.988839
    12618.296500       0.989691
    12634.238800       0.990508
    12650.221400       0.991290
    12666.244500       0.992037
    12682.308200       0.992750
    12698.412700       0.993428
    12714.558200       0.994072
    12730.744700       0.994682
    12746.972600       0.995258
    12763.241900       0.995800
    12779.552700       0.996308
    12795.905300       0.996782
    12812.299800       0.997223
    12828.736400       0.997631
    12845.215200       0.998005
    12861.736300       0.998347
    12878.300100       0.998656
    12894.906500       0.998933
    12911.555800       0.999177
    12928.248200       0.999389
    12944.983800       0.999569
    12961.762800       0.999718
    12978.585300       0.999835
    12995.451600       0.999921
    13012.361700       0.999976
    13029.316000       1.000000
    13046.314400       0.999994
    13063.357300       0.999957
    13080.444700       0.999891
    13097.576900       0.999794
    13114.754100       0.999669
    13131.976400       0.999514
    13149.243900       0.999330
    13166.556900       0.999117
    13183.915600       0.998877
    13201.320100       0.998608
    13218.770700       0.998311
    13236.267400       0.997987
    13253.810500       0.997635
    13271.400100       0.997257
    13289.036500       0.996852
    13306.719900       0.996421
    13324.450400       0.995964
    13342.228200       0.995482
    13360.053400       0.994974
    13377.926400       0.994441
    13395.847300       0.993884
    13413.816200       0.993302
    13431.833400       0.992696
    13449.899100       0.992067
    13468.013500       0.991415
    13486.176700       0.990740
    13504.388900       0.990042
    13522.650400       0.989322
    13540.961400       0.988580
    13559.322000       0.987817
    13577.732500       0.987033
    13596.193100       0.986228
    13614.703900       0.985403
    13633.265200       0.984558
    13651.877100       0.983693
    13670.540000       0.982810
    13689.253900       0.981907
    13708.019200       0.980986
    13726.836000       0.980048
    13745.704500       0.979091
    13764.624900       0.978117
    13783.597500       0.977127
    13802.622500       0.976120
    13821.700100       0.975098
    13840.830400       0.974059
    13860.013900       0.973006
    13879.250500       0.971937
    13898.540700       0.970855
    13917.884500       0.969758
    13937.282200       0.968648
    13956.734100       0.967525
    13976.240400       0.966389
    13995.801300       0.965241
    14015.417000       0.964081
    14035.087700       0.962909
    14054.813800       0.961727
    14074.595400       0.960533
    14094.432700       0.959330
    14114.326000       0.958117
    14134.275600       0.956894
    14154.281700       0.955663
    14174.344400       0.954423
    14194.464200       0.953175
    14214.641100       0.951919
    14234.875400       0.950656
    14255.167500       0.949386
    14275.517500       0.948110
    14295.925700       0.946828
    14316.392300       0.945540
    14336.917600       0.944247
    14357.501800       0.942949
    14378.145200       0.941647
    14398.848100       0.940341
    14419.610700       0.939031
    14440.433200       0.937718
    14461.316000       0.936403
    14482.259200       0.935085
    14503.263200       0.933765
    14524.328200       0.932444
    14545.454500       0.931122
    14566.642400       0.929799
    14587.892000       0.928476
    14609.203800       0.927152
    14630.577900       0.925830
    14652.014700       0.924508
    14673.514300       0.923187
    14695.077100       0.921868
    14716.703500       0.920551
    14738.393500       0.919237
    14760.147600       0.917925
    14781.966000       0.916616
    14803.849000       0.915311
    14825.796900       0.914010
    14847.809900       0.912713
    14869.888500       0.911420
    14892.032800       0.910133
    14914.243100       0.908850
    14936.519800       0.907574
    14958.863100       0.906303
    14981.273400       0.905039
    15003.750900       0.903781
    15026.296000       0.902530
    15048.909000       0.901286
    15071.590100       0.900050
    15094.339600       0.898822
    15117.158000       0.897602
    15140.045400       0.896390
    15163.002300       0.895187
    15186.028900       0.893994
    15209.125500       0.892809
    15232.292500       0.891634
    15255.530100       0.890470
    15278.838800       0.889315
    15302.218800       0.888171
    15325.670500       0.887037
    15349.194200       0.885914
    15372.790200       0.884803
    15396.458800       0.883702
    15420.200500       0.882614
    15444.015400       0.881537
    15467.904100       0.880473
    15491.866800       0.879420
    15515.903800       0.878380
    15540.015500       0.877353
    15564.202300       0.876339
    15588.464500       0.875337
    15612.802500       0.874349
    15637.216600       0.873374
    15661.707100       0.872413
    15686.274500       0.871465
    15710.919100       0.870531
    15735.641200       0.869611
    15760.441300       0.868705
    15785.319700       0.867813
    15810.276700       0.866936
    15835.312700       0.866073
    15860.428200       0.865224
    15885.623500       0.864390
    15910.899000       0.863571
    15936.255000       0.862766
    15961.691900       0.861976
    15987.210200       0.861201
    16012.810200       0.860440
    16038.492400       0.859695
    16064.257000       0.858965
    16090.104600       0.858249
    16116.035500       0.857548
    16142.050000       0.856862
    16168.148700       0.856192
    16194.332000       0.855536
    16220.600200       0.854894
    16246.953700       0.854268
    16273.393000       0.853657
    16299.918500       0.853060
    16326.530600       0.852477
    16353.229800       0.851910
    16380.016400       0.851356
    16406.890900       0.850818
    16433.853700       0.850293
    16460.905300       0.849782
    16488.046200       0.849286
    16515.276600       0.848803
    16542.597200       0.848334
    16570.008300       0.847879
    16597.510400       0.847437
    16625.103900       0.847008
    16652.789300       0.846592
    16680.567100       0.846190
    16708.437800       0.845799
    16736.401700       0.845421
    16764.459300       0.845056
    16792.611300       0.844702
    16820.857900       0.844360
    16849.199700       0.844029
    16877.637100       0.843709
    16906.170800       0.843400
    16934.801000       0.843102
    16963.528400       0.842814
    16992.353400       0.842536
    17021.276600       0.842268
    17050.298400       0.842009
    17079.419300       0.841759
    17108.639900       0.841518
    17137.960600       0.841284
    17167.382000       0.841059
    17196.904600       0.840841
    17226.528900       0.840631
    17256.255400       0.840427
    17286.084700       0.840229
    17316.017300       0.840037
    17346.053800       0.839850
    17376.194600       0.839669
    17406.440400       0.839492
    17436.791600       0.839319
    17467.248900       0.839149
    17497.812800       0.838983
    17528.483800       0.838819
    17559.262500       0.838658
    17590.149500       0.838498
    17621.145400       0.838339
    17652.250700       0.838180
    17683.466000       0.838022
    17714.791900       0.837863
    17746.228900       0.837703
    17777.777800       0.837541
    17809.439000       0.837376
    17841.213200       0.837209
    17873.101000       0.837039
    17905.103000       0.836864
    17937.219700       0.836684
    17969.451900       0.836500
    18001.800200       0.836309
    18034.265100       0.836111
    18066.847300       0.835907
    18099.547500       0.835694
    18132.366300       0.835473
    18165.304300       0.835242
    18198.362100       0.835002
    18231.540600       0.834751
    18264.840200       0.834488
    18298.261700       0.834213
    18331.805700       0.833926
    18365.472900       0.833625
    18399.264000       0.833309
    18433.179700       0.832979
    18467.220700       0.832633
    18501.387600       0.832270
    18535.681200       0.831890
    18570.102100       0.831492
    18604.651200       0.831076
    18639.329000       0.830639
    18674.136300       0.830182
    18709.073900       0.829704
    18744.142500       0.829204
    18779.342700       0.828681
    18814.675400       0.828135
    18850.141400       0.827564
    18885.741300       0.826968
    18921.475900       0.826345
    18957.346000       0.825696
    18993.352300       0.825019
    19029.495700       0.824313
    19065.776900       0.823578
    19102.196800       0.822813
    19138.756000       0.822016
    19175.455400       0.821188
    19212.295900       0.820326
    19249.278200       0.819431
    19286.403100       0.818501
    19323.671500       0.817536
    19361.084200       0.816534
    19398.642100       0.815495
    19436.346000       0.814418
    19474.196700       0.813302
    19512.195100       0.812146
    19550.342100       0.810949
    19588.638600       0.809711
    19627.085400       0.808430
    19665.683400       0.807105
    19704.433500       0.805736
    19743.336600       0.804323
    19782.393700       0.802863
    19821.605600       0.801356
    19860.973200       0.799801
    19900.497500       0.798197
    19940.179500       0.796544
    19980.020000       0.794841
    20020.020000       0.793086
    20060.180500       0.791278
    20100.502500       0.789418
    20140.986900       0.787504
    20181.634700       0.785534
    20222.446900       0.783510
    20263.424500       0.781428
    20304.568500       0.779289
    20345.880000       0.777092
    20387.359800       0.774835
    20429.009200       0.772519
    20470.829100       0.770142
    20512.820500       0.767703
    20554.984600       0.765202
    20597.322300       0.762637
    20639.834900       0.760009
    20682.523300       0.757315
    20725.388600       0.754556
    20768.432000       0.751730
    20811.654500       0.748838
    20855.057400       0.745877
    20898.641600       0.742847
    20942.408400       0.739748
    20986.358900       0.736578
    21030.494200       0.733338
    21074.815600       0.730025
    21119.324200       0.726641
    21164.021200       0.723183
    21208.907700       0.719651
    21253.985100       0.716045
    21299.254500       0.712364
    21344.717200       0.708607
    21390.374300       0.704774
    21436.227200       0.700863
    21482.277100       0.696875
    21528.525300       0.692809
    21574.973000       0.688663
    21621.621600       0.684439
    21668.472400       0.680134
    21715.526600       0.675749
    21762.785600       0.671283
    21810.250800       0.666736
    21857.923500       0.662107
    21905.805000       0.657395
    21953.896800       0.652600
    22002.200200       0.647722
    22050.716600       0.642761
    22099.447500       0.637716
    22148.394200       0.632586
    22197.558300       0.627371
    22246.941000       0.622072
    22296.544000       0.616687
    22346.368700       0.611216
    22396.416600       0.605660
    22446.689100       0.600017
    22497.187900       0.594288
    22547.914300       0.588473
    22598.870100       0.582571
    22650.056600       0.576583
    22701.475600       0.570507
    22753.128600       0.564345
    22805.017100       0.558096
    22857.142900       0.551760
    22909.507400       0.545337
    22962.112500       0.538826
    23014.959700       0.532230
    23068.050700       0.525546
    23121.387300       0.518775
    23174.971000       0.511919
    23228.803700       0.504976
    23282.887100       0.497946
    23337.222900       0.490831
    23391.812900       0.483631
    23446.658900       0.476345
    23501.762600       0.468974
    23557.126000       0.461519
    23612.750900       0.453980
    23668.639100       0.446357
    23724.792400       0.438651
    23781.212800       0.430863
    23837.902300       0.422992
    23894.862600       0.415040
    23952.095800       0.407007
    24009.603800       0.398894
    24067.388700       0.390702
    24125.452400       0.382431
    24183.796900       0.374083
    24242.424200       0.365657
    24301.336600       0.357155
    24360.535900       0.348578
    24420.024400       0.339927
    24479.804200       0.331202
    24539.877300       0.322406
    24600.246000       0.313538
    24660.912500       0.304600
    24721.878900       0.295594
    24783.147500       0.286520
    24844.720500       0.277380
    24906.600200       0.268174
    24968.789000       0.258906
    25031.289100       0.249575
    25094.102900       0.240184
    25157.232700       0.230733
    25220.681000       0.221225
    25284.450100       0.211661
    25348.542500       0.202043
    25412.960600       0.192372
    25477.707000       0.182650
