24,   24, MVIRI VIS channel from srf_MET5_1994078_1994079_1801-Release_S10EL_10.dat
Number of data points:
806
Wavenumber (cm-1)   Filter response
     8350.730700       0.000000
     8357.710000       0.000000
     8364.701000       0.000000
     8371.703600       0.000001
     8378.718100       0.000004
     8385.744200       0.000009
     8392.782200       0.000016
     8399.832000       0.000026
     8406.893700       0.000040
     8413.967200       0.000058
     8421.052600       0.000081
     8428.150000       0.000108
     8435.259400       0.000141
     8442.380800       0.000180
     8449.514200       0.000226
     8456.659600       0.000278
     8463.817200       0.000337
     8470.986900       0.000403
     8478.168700       0.000478
     8485.362700       0.000560
     8492.569000       0.000651
     8499.787500       0.000751
     8507.018300       0.000860
     8514.261400       0.000979
     8521.516800       0.001107
     8528.784600       0.001245
     8536.064900       0.001394
     8543.357500       0.001553
     8550.662700       0.001723
     8557.980300       0.001904
     8565.310500       0.002096
     8572.653200       0.002300
     8580.008600       0.002515
     8587.376600       0.002743
     8594.757200       0.002983
     8602.150500       0.003235
     8609.556600       0.003500
     8616.975400       0.003778
     8624.407100       0.004068
     8631.851500       0.004372
     8639.308900       0.004690
     8646.779100       0.005020
     8654.262200       0.005365
     8661.758300       0.005723
     8669.267400       0.006096
     8676.789600       0.006482
     8684.324800       0.006883
     8691.873100       0.007298
     8699.434500       0.007728
     8707.009100       0.008173
     8714.596900       0.008633
     8722.198000       0.009108
     8729.812300       0.009598
     8737.439900       0.010103
     8745.080900       0.010624
     8752.735200       0.011161
     8760.403000       0.011713
     8768.084200       0.012281
     8775.778900       0.012865
     8783.487000       0.013465
     8791.208800       0.014081
     8798.944100       0.014714
     8806.693100       0.015363
     8814.455700       0.016029
     8822.232000       0.016711
     8830.022100       0.017410
     8837.825900       0.018126
     8845.643500       0.018859
     8853.475000       0.019609
     8861.320300       0.020377
     8869.179600       0.021162
     8877.052800       0.021964
     8884.940000       0.022784
     8892.841300       0.023621
     8900.756600       0.024477
     8908.686000       0.025350
     8916.629500       0.026241
     8924.587200       0.027150
     8932.559200       0.028077
     8940.545400       0.029023
     8948.545900       0.029987
     8956.560700       0.030970
     8964.589900       0.031971
     8972.633500       0.032991
     8980.691500       0.034030
     8988.764000       0.035088
     8996.851100       0.036164
     9004.952700       0.037260
     9013.068900       0.038375
     9021.199800       0.039510
     9029.345400       0.040664
     9037.505600       0.041837
     9045.680700       0.043030
     9053.870500       0.044243
     9062.075200       0.045475
     9070.294800       0.046728
     9078.529300       0.048000
     9086.778700       0.049293
     9095.043200       0.050606
     9103.322700       0.051939
     9111.617300       0.053292
     9119.927000       0.054666
     9128.251900       0.056061
     9136.592100       0.057477
     9144.947400       0.058913
     9153.318100       0.060370
     9161.704100       0.061848
     9170.105500       0.063347
     9178.522300       0.064867
     9186.954500       0.066408
     9195.402300       0.067971
     9203.865600       0.069555
     9212.344500       0.071161
     9220.839100       0.072788
     9229.349300       0.074437
     9237.875300       0.076108
     9246.417000       0.077800
     9254.974500       0.079515
     9263.547900       0.081251
     9272.137200       0.083010
     9280.742500       0.084790
     9289.363700       0.086593
     9298.000900       0.088418
     9306.654300       0.090266
     9315.323700       0.092136
     9324.009300       0.094028
     9332.711200       0.095944
     9341.429200       0.097881
     9350.163600       0.099841
     9358.914400       0.101824
     9367.681500       0.103830
     9376.465100       0.105859
     9385.265100       0.107911
     9394.081700       0.109986
     9402.914900       0.112083
     9411.764700       0.114204
     9420.631200       0.116348
     9429.514400       0.118515
     9438.414300       0.120706
     9447.331100       0.122919
     9456.264800       0.125156
     9465.215300       0.127416
     9474.182900       0.129700
     9483.167400       0.132007
     9492.169000       0.134337
     9501.187600       0.136691
     9510.223500       0.139068
     9519.276500       0.141468
     9528.346800       0.143893
     9537.434400       0.146340
     9546.539400       0.148811
     9555.661700       0.151306
     9564.801500       0.153824
     9573.958800       0.156365
     9583.133700       0.158931
     9592.326100       0.161519
     9601.536200       0.164131
     9610.764100       0.166766
     9620.009600       0.169425
     9629.273000       0.172108
     9638.554200       0.174813
     9647.853400       0.177542
     9657.170400       0.180295
     9666.505600       0.183071
     9675.858700       0.185870
     9685.230000       0.188692
     9694.619500       0.191537
     9704.027200       0.194405
     9713.453100       0.197297
     9722.897400       0.200212
     9732.360100       0.203149
     9741.841200       0.206109
     9751.340800       0.209092
     9760.859000       0.212098
     9770.395700       0.215127
     9779.951100       0.218178
     9789.525200       0.221252
     9799.118100       0.224348
     9808.729800       0.227466
     9818.360300       0.230607
     9828.009800       0.233770
     9837.678300       0.236954
     9847.365800       0.240161
     9857.072400       0.243389
     9866.798200       0.246640
     9876.543200       0.249911
     9886.307500       0.253204
     9896.091000       0.256519
     9905.894000       0.259854
     9915.716400       0.263211
     9925.558300       0.266588
     9935.419800       0.269986
     9945.300800       0.273405
     9955.201600       0.276844
     9965.122100       0.280304
     9975.062300       0.283783
     9985.022500       0.287283
     9995.002500       0.290802
    10005.002500       0.294341
    10015.022500       0.297899
    10025.062700       0.301477
    10035.122900       0.305073
    10045.203400       0.308688
    10055.304200       0.312323
    10065.425300       0.315975
    10075.566800       0.319646
    10085.728700       0.323334
    10095.911200       0.327041
    10106.114200       0.330765
    10116.337900       0.334507
    10126.582300       0.338266
    10136.847400       0.342041
    10147.133400       0.345834
    10157.440300       0.349643
    10167.768200       0.353468
    10178.117000       0.357309
    10188.487000       0.361165
    10198.878100       0.365038
    10209.290500       0.368925
    10219.724100       0.372828
    10230.179000       0.376745
    10240.655400       0.380677
    10251.153300       0.384622
    10261.672700       0.388582
    10272.213700       0.392555
    10282.776300       0.396541
    10293.360800       0.400541
    10303.967000       0.404553
    10314.595200       0.408578
    10325.245200       0.412615
    10335.917300       0.416664
    10346.611500       0.420724
    10357.327800       0.424795
    10368.066400       0.428878
    10378.827200       0.432971
    10389.610400       0.437074
    10400.416000       0.441188
    10411.244100       0.445310
    10422.094800       0.449443
    10432.968200       0.453584
    10443.864200       0.457734
    10454.783100       0.461892
    10465.724800       0.466059
    10476.689400       0.470233
    10487.677000       0.474414
    10498.687700       0.478602
    10509.721500       0.482797
    10520.778500       0.486998
    10531.858900       0.491205
    10542.962600       0.495418
    10554.089700       0.499636
    10565.240400       0.503858
    10576.414600       0.508085
    10587.612500       0.512317
    10598.834100       0.516552
    10610.079600       0.520790
    10621.348900       0.525031
    10632.642200       0.529275
    10643.959600       0.533522
    10655.301000       0.537770
    10666.666700       0.542019
    10678.056600       0.546270
    10689.470900       0.550521
    10700.909600       0.554773
    10712.372800       0.559025
    10723.860600       0.563276
    10735.373100       0.567527
    10746.910300       0.571776
    10758.472300       0.576024
    10770.059200       0.580270
    10781.671200       0.584513
    10793.308100       0.588754
    10804.970300       0.592991
    10816.657700       0.597225
    10828.370300       0.601455
    10840.108400       0.605680
    10851.871900       0.609901
    10863.661100       0.614117
    10875.475800       0.618327
    10887.316300       0.622531
    10899.182600       0.626729
    10911.074700       0.630920
    10922.992900       0.635104
    10934.937100       0.639281
    10946.907500       0.643449
    10958.904100       0.647609
    10970.927000       0.651761
    10982.976400       0.655903
    10995.052200       0.660036
    11007.154700       0.664159
    11019.283700       0.668271
    11031.439600       0.672373
    11043.622300       0.676464
    11055.832000       0.680543
    11068.068600       0.684610
    11080.332400       0.688665
    11092.623400       0.692707
    11104.941700       0.696736
    11117.287400       0.700752
    11129.660500       0.704753
    11142.061300       0.708741
    11154.489700       0.712714
    11166.945800       0.716671
    11179.429800       0.720614
    11191.941800       0.724541
    11204.481800       0.728451
    11217.049900       0.732345
    11229.646300       0.736222
    11242.270900       0.740081
    11254.924000       0.743923
    11267.605600       0.747747
    11280.315800       0.751552
    11293.054800       0.755339
    11305.822500       0.759106
    11318.619100       0.762855
    11331.444800       0.766583
    11344.299500       0.770291
    11357.183400       0.773978
    11370.096600       0.777644
    11383.039300       0.781289
    11396.011400       0.784913
    11409.013100       0.788514
    11422.044500       0.792093
    11435.105800       0.795650
    11448.196900       0.799183
    11461.318100       0.802693
    11474.469300       0.806180
    11487.650800       0.809642
    11500.862600       0.813081
    11514.104800       0.816494
    11527.377500       0.819883
    11540.680900       0.823247
    11554.015000       0.826585
    11567.380000       0.829897
    11580.775900       0.833183
    11594.202900       0.836442
    11607.661100       0.839675
    11621.150500       0.842881
    11634.671300       0.846059
    11648.223600       0.849210
    11661.807600       0.852333
    11675.423200       0.855428
    11689.070700       0.858495
    11702.750100       0.861533
    11716.461600       0.864542
    11730.205300       0.867521
    11743.981200       0.870472
    11757.789500       0.873393
    11771.630400       0.876284
    11785.503800       0.879144
    11799.410000       0.881975
    11813.349100       0.884775
    11827.321100       0.887544
    11841.326200       0.890282
    11855.364600       0.892988
    11869.436200       0.895664
    11883.541300       0.898308
    11897.680000       0.900919
    11911.852300       0.903499
    11926.058400       0.906047
    11940.298500       0.908562
    11954.572600       0.911045
    11968.880900       0.913495
    11983.223500       0.915912
    11997.600500       0.918296
    12012.012000       0.920647
    12026.458200       0.922965
    12040.939200       0.925249
    12055.455100       0.927499
    12070.006000       0.929716
    12084.592100       0.931899
    12099.213600       0.934048
    12113.870400       0.936163
    12128.562800       0.938243
    12143.290800       0.940290
    12158.054700       0.942302
    12172.854500       0.944279
    12187.690400       0.946222
    12202.562500       0.948130
    12217.471000       0.950003
    12232.415900       0.951842
    12247.397400       0.953646
    12262.415700       0.955415
    12277.470800       0.957148
    12292.563000       0.958847
    12307.692300       0.960511
    12322.858900       0.962140
    12338.062900       0.963734
    12353.304500       0.965292
    12368.583800       0.966816
    12383.900900       0.968304
    12399.256000       0.969757
    12414.649300       0.971176
    12430.080800       0.972559
    12445.550700       0.973906
    12461.059200       0.975219
    12476.606400       0.976497
    12492.192400       0.977740
    12507.817400       0.978948
    12523.481500       0.980121
    12539.185000       0.981259
    12554.927800       0.982362
    12570.710200       0.983431
    12586.532400       0.984464
    12602.394500       0.985464
    12618.296500       0.986429
    12634.238800       0.987359
    12650.221400       0.988255
    12666.244500       0.989117
    12682.308200       0.989945
    12698.412700       0.990739
    12714.558200       0.991499
    12730.744700       0.992225
    12746.972600       0.992918
    12763.241900       0.993577
    12779.552700       0.994203
    12795.905300       0.994796
    12812.299800       0.995355
    12828.736400       0.995882
    12845.215200       0.996377
    12861.736300       0.996838
    12878.300100       0.997268
    12894.906500       0.997665
    12911.555800       0.998030
    12928.248200       0.998364
    12944.983800       0.998666
    12961.762800       0.998937
    12978.585300       0.999176
    12995.451600       0.999385
    13012.361700       0.999563
    13029.316000       0.999710
    13046.314400       0.999827
    13063.357300       0.999915
    13080.444700       0.999972
    13097.576900       1.000000
    13114.754100       0.999999
    13131.976400       0.999968
    13149.243900       0.999910
    13166.556900       0.999822
    13183.915600       0.999706
    13201.320100       0.999563
    13218.770700       0.999392
    13236.267400       0.999193
    13253.810500       0.998968
    13271.400100       0.998716
    13289.036500       0.998437
    13306.719900       0.998132
    13324.450400       0.997802
    13342.228200       0.997446
    13360.053400       0.997064
    13377.926400       0.996658
    13395.847300       0.996227
    13413.816200       0.995772
    13431.833400       0.995294
    13449.899100       0.994791
    13468.013500       0.994266
    13486.176700       0.993718
    13504.388900       0.993147
    13522.650400       0.992554
    13540.961400       0.991939
    13559.322000       0.991303
    13577.732500       0.990646
    13596.193100       0.989968
    13614.703900       0.989270
    13633.265200       0.988551
    13651.877100       0.987814
    13670.540000       0.987057
    13689.253900       0.986281
    13708.019200       0.985487
    13726.836000       0.984675
    13745.704500       0.983845
    13764.624900       0.982998
    13783.597500       0.982134
    13802.622500       0.981253
    13821.700100       0.980357
    13840.830400       0.979445
    13860.013900       0.978517
    13879.250500       0.977575
    13898.540700       0.976618
    13917.884500       0.975647
    13937.282200       0.974663
    13956.734100       0.973665
    13976.240400       0.972655
    13995.801300       0.971632
    14015.417000       0.970597
    14035.087700       0.969550
    14054.813800       0.968493
    14074.595400       0.967424
    14094.432700       0.966346
    14114.326000       0.965257
    14134.275600       0.964159
    14154.281700       0.963052
    14174.344400       0.961936
    14194.464200       0.960812
    14214.641100       0.959680
    14234.875400       0.958541
    14255.167500       0.957395
    14275.517500       0.956242
    14295.925700       0.955083
    14316.392300       0.953918
    14336.917600       0.952748
    14357.501800       0.951573
    14378.145200       0.950394
    14398.848100       0.949211
    14419.610700       0.948024
    14440.433200       0.946833
    14461.316000       0.945640
    14482.259200       0.944445
    14503.263200       0.943247
    14524.328200       0.942048
    14545.454500       0.940847
    14566.642400       0.939646
    14587.892000       0.938444
    14609.203800       0.937243
    14630.577900       0.936042
    14652.014700       0.934841
    14673.514300       0.933642
    14695.077100       0.932444
    14716.703500       0.931248
    14738.393500       0.930055
    14760.147600       0.928864
    14781.966000       0.927676
    14803.849000       0.926491
    14825.796900       0.925311
    14847.809900       0.924135
    14869.888500       0.922963
    14892.032800       0.921796
    14914.243100       0.920634
    14936.519800       0.919478
    14958.863100       0.918328
    14981.273400       0.917184
    15003.750900       0.916046
    15026.296000       0.914916
    15048.909000       0.913793
    15071.590100       0.912677
    15094.339600       0.911569
    15117.158000       0.910470
    15140.045400       0.909379
    15163.002300       0.908297
    15186.028900       0.907224
    15209.125500       0.906160
    15232.292500       0.905106
    15255.530100       0.904062
    15278.838800       0.903028
    15302.218800       0.902005
    15325.670500       0.900993
    15349.194200       0.899991
    15372.790200       0.899001
    15396.458800       0.898022
    15420.200500       0.897056
    15444.015400       0.896101
    15467.904100       0.895158
    15491.866800       0.894228
    15515.903800       0.893310
    15540.015500       0.892405
    15564.202300       0.891514
    15588.464500       0.890635
    15612.802500       0.889770
    15637.216600       0.888918
    15661.707100       0.888080
    15686.274500       0.887256
    15710.919100       0.886446
    15735.641200       0.885651
    15760.441300       0.884869
    15785.319700       0.884102
    15810.276700       0.883350
    15835.312700       0.882612
    15860.428200       0.881889
    15885.623500       0.881181
    15910.899000       0.880488
    15936.255000       0.879809
    15961.691900       0.879146
    15987.210200       0.878498
    16012.810200       0.877866
    16038.492400       0.877248
    16064.257000       0.876646
    16090.104600       0.876059
    16116.035500       0.875487
    16142.050000       0.874931
    16168.148700       0.874390
    16194.332000       0.873864
    16220.600200       0.873353
    16246.953700       0.872858
    16273.393000       0.872378
    16299.918500       0.871913
    16326.530600       0.871463
    16353.229800       0.871028
    16380.016400       0.870608
    16406.890900       0.870202
    16433.853700       0.869812
    16460.905300       0.869436
    16488.046200       0.869074
    16515.276600       0.868727
    16542.597200       0.868394
    16570.008300       0.868075
    16597.510400       0.867769
    16625.103900       0.867478
    16652.789300       0.867200
    16680.567100       0.866935
    16708.437800       0.866684
    16736.401700       0.866445
    16764.459300       0.866219
    16792.611300       0.866005
    16820.857900       0.865804
    16849.199700       0.865614
    16877.637100       0.865436
    16906.170800       0.865270
    16934.801000       0.865114
    16963.528400       0.864969
    16992.353400       0.864835
    17021.276600       0.864711
    17050.298400       0.864596
    17079.419300       0.864491
    17108.639900       0.864395
    17137.960600       0.864308
    17167.382000       0.864229
    17196.904600       0.864158
    17226.528900       0.864094
    17256.255400       0.864038
    17286.084700       0.863988
    17316.017300       0.863945
    17346.053800       0.863907
    17376.194600       0.863875
    17406.440400       0.863848
    17436.791600       0.863825
    17467.248900       0.863806
    17497.812800       0.863791
    17528.483800       0.863778
    17559.262500       0.863768
    17590.149500       0.863760
    17621.145400       0.863753
    17652.250700       0.863747
    17683.466000       0.863741
    17714.791900       0.863735
    17746.228900       0.863728
    17777.777800       0.863720
    17809.439000       0.863709
    17841.213200       0.863696
    17873.101000       0.863679
    17905.103000       0.863659
    17937.219700       0.863633
    17969.451900       0.863603
    18001.800200       0.863567
    18034.265100       0.863524
    18066.847300       0.863473
    18099.547500       0.863415
    18132.366300       0.863349
    18165.304300       0.863272
    18198.362100       0.863186
    18231.540600       0.863089
    18264.840200       0.862981
    18298.261700       0.862860
    18331.805700       0.862726
    18365.472900       0.862579
    18399.264000       0.862417
    18433.179700       0.862239
    18467.220700       0.862046
    18501.387600       0.861835
    18535.681200       0.861607
    18570.102100       0.861360
    18604.651200       0.861094
    18639.329000       0.860808
    18674.136300       0.860501
    18709.073900       0.860172
    18744.142500       0.859821
    18779.342700       0.859446
    18814.675400       0.859046
    18850.141400       0.858622
    18885.741300       0.858171
    18921.475900       0.857693
    18957.346000       0.857188
    18993.352300       0.856653
    19029.495700       0.856089
    19065.776900       0.855495
    19102.196800       0.854869
    19138.756000       0.854211
    19175.455400       0.853519
    19212.295900       0.852794
    19249.278200       0.852033
    19286.403100       0.851236
    19323.671500       0.850402
    19361.084200       0.849531
    19398.642100       0.848620
    19436.346000       0.847670
    19474.196700       0.846679
    19512.195100       0.845647
    19550.342100       0.844572
    19588.638600       0.843453
    19627.085400       0.842290
    19665.683400       0.841081
    19704.433500       0.839827
    19743.336600       0.838524
    19782.393700       0.837174
    19821.605600       0.835774
    19860.973200       0.834324
    19900.497500       0.832823
    19940.179500       0.831270
    19980.020000       0.829664
    20020.020000       0.828003
    20060.180500       0.826288
    20100.502500       0.824517
    20140.986900       0.822689
    20181.634700       0.820804
    20222.446900       0.818859
    20263.424500       0.816855
    20304.568500       0.814790
    20345.880000       0.812664
    20387.359800       0.810475
    20429.009200       0.808223
    20470.829100       0.805907
    20512.820500       0.803526
    20554.984600       0.801078
    20597.322300       0.798563
    20639.834900       0.795981
    20682.523300       0.793329
    20725.388600       0.790608
    20768.432000       0.787817
    20811.654500       0.784954
    20855.057400       0.782019
    20898.641600       0.779010
    20942.408400       0.775928
    20986.358900       0.772771
    21030.494200       0.769538
    21074.815600       0.766229
    21119.324200       0.762843
    21164.021200       0.759379
    21208.907700       0.755836
    21253.985100       0.752214
    21299.254500       0.748511
    21344.717200       0.744727
    21390.374300       0.740862
    21436.227200       0.736914
    21482.277100       0.732883
    21528.525300       0.728768
    21574.973000       0.724569
    21621.621600       0.720285
    21668.472400       0.715914
    21715.526600       0.711458
    21762.785600       0.706914
    21810.250800       0.702283
    21857.923500       0.697564
    21905.805000       0.692756
    21953.896800       0.687859
    22002.200200       0.682872
    22050.716600       0.677795
    22099.447500       0.672627
    22148.394200       0.667368
    22197.558300       0.662018
    22246.941000       0.656575
    22296.544000       0.651041
    22346.368700       0.645414
    22396.416600       0.639693
    22446.689100       0.633880
    22497.187900       0.627972
    22547.914300       0.621971
    22598.870100       0.615876
    22650.056600       0.609687
    22701.475600       0.603403
    22753.128600       0.597024
    22805.017100       0.590551
    22857.142900       0.583983
    22909.507400       0.577320
    22962.112500       0.570562
    23014.959700       0.563709
    23068.050700       0.556761
    23121.387300       0.549718
    23174.971000       0.542581
    23228.803700       0.535349
    23282.887100       0.528022
    23337.222900       0.520601
    23391.812900       0.513086
    23446.658900       0.505477
    23501.762600       0.497775
    23557.126000       0.489979
    23612.750900       0.482091
    23668.639100       0.474111
    23724.792400       0.466038
    23781.212800       0.457874
    23837.902300       0.449618
    23894.862600       0.441273
    23952.095800       0.432838
    24009.603800       0.424313
    24067.388700       0.415700
    24125.452400       0.407000
    24183.796900       0.398212
    24242.424200       0.389339
    24301.336600       0.380380
    24360.535900       0.371336
    24420.024400       0.362210
    24479.804200       0.353000
    24539.877300       0.343710
    24600.246000       0.334340
    24660.912500       0.324890
    24721.878900       0.315362
    24783.147500       0.305757
    24844.720500       0.296078
    24906.600200       0.286324
    24968.789000       0.276497
    25031.289100       0.266600
    25094.102900       0.256632
    25157.232700       0.246597
    25220.681000       0.236495
    25284.450100       0.226328
    25348.542500       0.216098
    25412.960600       0.205807
    25477.707000       0.195456
