52,   52, MVIRI VIS channel from srf_MET5_1997258_1997259_1801-Release_S10EL_10.dat
Number of data points:
806
Wavenumber (cm-1)   Filter response
     8350.730700       0.000000
     8357.710000       0.000000
     8364.701000       0.000000
     8371.703600       0.000002
     8378.718100       0.000004
     8385.744200       0.000009
     8392.782200       0.000016
     8399.832000       0.000027
     8406.893700       0.000041
     8413.967200       0.000059
     8421.052600       0.000082
     8428.150000       0.000110
     8435.259400       0.000144
     8442.380800       0.000184
     8449.514200       0.000230
     8456.659600       0.000283
     8463.817200       0.000343
     8470.986900       0.000411
     8478.168700       0.000486
     8485.362700       0.000570
     8492.569000       0.000663
     8499.787500       0.000764
     8507.018300       0.000875
     8514.261400       0.000996
     8521.516800       0.001126
     8528.784600       0.001267
     8536.064900       0.001418
     8543.357500       0.001580
     8550.662700       0.001753
     8557.980300       0.001937
     8565.310500       0.002133
     8572.653200       0.002340
     8580.008600       0.002559
     8587.376600       0.002791
     8594.757200       0.003035
     8602.150500       0.003291
     8609.556600       0.003561
     8616.975400       0.003843
     8624.407100       0.004139
     8631.851500       0.004448
     8639.308900       0.004770
     8646.779100       0.005107
     8654.262200       0.005457
     8661.758300       0.005821
     8669.267400       0.006200
     8676.789600       0.006593
     8684.324800       0.007000
     8691.873100       0.007422
     8699.434500       0.007860
     8707.009100       0.008312
     8714.596900       0.008779
     8722.198000       0.009262
     8729.812300       0.009760
     8737.439900       0.010273
     8745.080900       0.010803
     8752.735200       0.011348
     8760.403000       0.011909
     8768.084200       0.012486
     8775.778900       0.013079
     8783.487000       0.013689
     8791.208800       0.014315
     8798.944100       0.014958
     8806.693100       0.015617
     8814.455700       0.016293
     8822.232000       0.016987
     8830.022100       0.017697
     8837.825900       0.018424
     8845.643500       0.019169
     8853.475000       0.019930
     8861.320300       0.020710
     8869.179600       0.021507
     8877.052800       0.022321
     8884.940000       0.023154
     8892.841300       0.024004
     8900.756600       0.024872
     8908.686000       0.025759
     8916.629500       0.026663
     8924.587200       0.027586
     8932.559200       0.028528
     8940.545400       0.029488
     8948.545900       0.030467
     8956.560700       0.031464
     8964.589900       0.032480
     8972.633500       0.033515
     8980.691500       0.034570
     8988.764000       0.035643
     8996.851100       0.036735
     9004.952700       0.037847
     9013.068900       0.038979
     9021.199800       0.040130
     9029.345400       0.041301
     9037.505600       0.042491
     9045.680700       0.043701
     9053.870500       0.044931
     9062.075200       0.046182
     9070.294800       0.047452
     9078.529300       0.048743
     9086.778700       0.050054
     9095.043200       0.051385
     9103.322700       0.052737
     9111.617300       0.054110
     9119.927000       0.055503
     9128.251900       0.056917
     9136.592100       0.058352
     9144.947400       0.059808
     9153.318100       0.061286
     9161.704100       0.062784
     9170.105500       0.064304
     9178.522300       0.065845
     9186.954500       0.067407
     9195.402300       0.068991
     9203.865600       0.070597
     9212.344500       0.072224
     9220.839100       0.073873
     9229.349300       0.075544
     9237.875300       0.077237
     9246.417000       0.078952
     9254.974500       0.080689
     9263.547900       0.082448
     9272.137200       0.084230
     9280.742500       0.086034
     9289.363700       0.087860
     9298.000900       0.089709
     9306.654300       0.091580
     9315.323700       0.093474
     9324.009300       0.095391
     9332.711200       0.097331
     9341.429200       0.099293
     9350.163600       0.101278
     9358.914400       0.103286
     9367.681500       0.105317
     9376.465100       0.107372
     9385.265100       0.109449
     9394.081700       0.111549
     9402.914900       0.113673
     9411.764700       0.115820
     9420.631200       0.117990
     9429.514400       0.120183
     9438.414300       0.122400
     9447.331100       0.124640
     9456.264800       0.126904
     9465.215300       0.129192
     9474.182900       0.131502
     9483.167400       0.133836
     9492.169000       0.136194
     9501.187600       0.138575
     9510.223500       0.140981
     9519.276500       0.143409
     9528.346800       0.145861
     9537.434400       0.148337
     9546.539400       0.150836
     9555.661700       0.153359
     9564.801500       0.155906
     9573.958800       0.158476
     9583.133700       0.161070
     9592.326100       0.163687
     9601.536200       0.166329
     9610.764100       0.168993
     9620.009600       0.171681
     9629.273000       0.174393
     9638.554200       0.177128
     9647.853400       0.179887
     9657.170400       0.182669
     9666.505600       0.185474
     9675.858700       0.188303
     9685.230000       0.191155
     9694.619500       0.194031
     9704.027200       0.196929
     9713.453100       0.199851
     9722.897400       0.202796
     9732.360100       0.205763
     9741.841200       0.208754
     9751.340800       0.211767
     9760.859000       0.214804
     9770.395700       0.217863
     9779.951100       0.220944
     9789.525200       0.224049
     9799.118100       0.227176
     9808.729800       0.230324
     9818.360300       0.233496
     9828.009800       0.236689
     9837.678300       0.239904
     9847.365800       0.243142
     9857.072400       0.246401
     9866.798200       0.249682
     9876.543200       0.252984
     9886.307500       0.256308
     9896.091000       0.259653
     9905.894000       0.263019
     9915.716400       0.266406
     9925.558300       0.269814
     9935.419800       0.273243
     9945.300800       0.276692
     9955.201600       0.280161
     9965.122100       0.283651
     9975.062300       0.287161
     9985.022500       0.290691
     9995.002500       0.294241
    10005.002500       0.297810
    10015.022500       0.301398
    10025.062700       0.305005
    10035.122900       0.308632
    10045.203400       0.312277
    10055.304200       0.315941
    10065.425300       0.319623
    10075.566800       0.323323
    10085.728700       0.327041
    10095.911200       0.330777
    10106.114200       0.334531
    10116.337900       0.338301
    10126.582300       0.342089
    10136.847400       0.345893
    10147.133400       0.349714
    10157.440300       0.353552
    10167.768200       0.357405
    10178.117000       0.361274
    10188.487000       0.365159
    10198.878100       0.369059
    10209.290500       0.372974
    10219.724100       0.376904
    10230.179000       0.380848
    10240.655400       0.384807
    10251.153300       0.388780
    10261.672700       0.392766
    10272.213700       0.396765
    10282.776300       0.400778
    10293.360800       0.404804
    10303.967000       0.408842
    10314.595200       0.412892
    10325.245200       0.416954
    10335.917300       0.421028
    10346.611500       0.425113
    10357.327800       0.429209
    10368.066400       0.433315
    10378.827200       0.437432
    10389.610400       0.441559
    10400.416000       0.445696
    10411.244100       0.449842
    10422.094800       0.453997
    10432.968200       0.458161
    10443.864200       0.462333
    10454.783100       0.466513
    10465.724800       0.470701
    10476.689400       0.474896
    10487.677000       0.479099
    10498.687700       0.483308
    10509.721500       0.487523
    10520.778500       0.491744
    10531.858900       0.495970
    10542.962600       0.500202
    10554.089700       0.504439
    10565.240400       0.508680
    10576.414600       0.512925
    10587.612500       0.517174
    10598.834100       0.521426
    10610.079600       0.525682
    10621.348900       0.529940
    10632.642200       0.534200
    10643.959600       0.538462
    10655.301000       0.542725
    10666.666700       0.546990
    10678.056600       0.551255
    10689.470900       0.555520
    10700.909600       0.559786
    10712.372800       0.564051
    10723.860600       0.568315
    10735.373100       0.572578
    10746.910300       0.576840
    10758.472300       0.581099
    10770.059200       0.585355
    10781.671200       0.589609
    10793.308100       0.593860
    10804.970300       0.598107
    10816.657700       0.602350
    10828.370300       0.606589
    10840.108400       0.610823
    10851.871900       0.615051
    10863.661100       0.619274
    10875.475800       0.623491
    10887.316300       0.627702
    10899.182600       0.631905
    10911.074700       0.636102
    10922.992900       0.640291
    10934.937100       0.644471
    10946.907500       0.648643
    10958.904100       0.652807
    10970.927000       0.656961
    10982.976400       0.661106
    10995.052200       0.665240
    11007.154700       0.669364
    11019.283700       0.673477
    11031.439600       0.677579
    11043.622300       0.681669
    11055.832000       0.685747
    11068.068600       0.689813
    11080.332400       0.693866
    11092.623400       0.697906
    11104.941700       0.701931
    11117.287400       0.705943
    11129.660500       0.709941
    11142.061300       0.713924
    11154.489700       0.717891
    11166.945800       0.721843
    11179.429800       0.725779
    11191.941800       0.729699
    11204.481800       0.733601
    11217.049900       0.737487
    11229.646300       0.741355
    11242.270900       0.745205
    11254.924000       0.749038
    11267.605600       0.752851
    11280.315800       0.756646
    11293.054800       0.760421
    11305.822500       0.764176
    11318.619100       0.767911
    11331.444800       0.771626
    11344.299500       0.775320
    11357.183400       0.778993
    11370.096600       0.782644
    11383.039300       0.786274
    11396.011400       0.789881
    11409.013100       0.793466
    11422.044500       0.797028
    11435.105800       0.800566
    11448.196900       0.804081
    11461.318100       0.807572
    11474.469300       0.811039
    11487.650800       0.814482
    11500.862600       0.817899
    11514.104800       0.821292
    11527.377500       0.824658
    11540.680900       0.827999
    11554.015000       0.831314
    11567.380000       0.834603
    11580.775900       0.837865
    11594.202900       0.841099
    11607.661100       0.844307
    11621.150500       0.847487
    11634.671300       0.850639
    11648.223600       0.853763
    11661.807600       0.856858
    11675.423200       0.859925
    11689.070700       0.862963
    11702.750100       0.865972
    11716.461600       0.868951
    11730.205300       0.871901
    11743.981200       0.874820
    11757.789500       0.877710
    11771.630400       0.880569
    11785.503800       0.883397
    11799.410000       0.886194
    11813.349100       0.888961
    11827.321100       0.891696
    11841.326200       0.894399
    11855.364600       0.897071
    11869.436200       0.899711
    11883.541300       0.902318
    11897.680000       0.904893
    11911.852300       0.907436
    11926.058400       0.909946
    11940.298500       0.912423
    11954.572600       0.914867
    11968.880900       0.917278
    11983.223500       0.919655
    11997.600500       0.921999
    12012.012000       0.924310
    12026.458200       0.926586
    12040.939200       0.928829
    12055.455100       0.931037
    12070.006000       0.933211
    12084.592100       0.935351
    12099.213600       0.937457
    12113.870400       0.939527
    12128.562800       0.941563
    12143.290800       0.943565
    12158.054700       0.945532
    12172.854500       0.947463
    12187.690400       0.949360
    12202.562500       0.951221
    12217.471000       0.953048
    12232.415900       0.954839
    12247.397400       0.956595
    12262.415700       0.958316
    12277.470800       0.960001
    12292.563000       0.961651
    12307.692300       0.963265
    12322.858900       0.964844
    12338.062900       0.966387
    12353.304500       0.967896
    12368.583800       0.969368
    12383.900900       0.970805
    12399.256000       0.972206
    12414.649300       0.973573
    12430.080800       0.974903
    12445.550700       0.976198
    12461.059200       0.977458
    12476.606400       0.978682
    12492.192400       0.979871
    12507.817400       0.981025
    12523.481500       0.982144
    12539.185000       0.983227
    12554.927800       0.984275
    12570.710200       0.985288
    12586.532400       0.986267
    12602.394500       0.987210
    12618.296500       0.988119
    12634.238800       0.988993
    12650.221400       0.989832
    12666.244500       0.990637
    12682.308200       0.991407
    12698.412700       0.992144
    12714.558200       0.992846
    12730.744700       0.993514
    12746.972600       0.994149
    12763.241900       0.994749
    12779.552700       0.995316
    12795.905300       0.995850
    12812.299800       0.996351
    12828.736400       0.996818
    12845.215200       0.997253
    12861.736300       0.997655
    12878.300100       0.998024
    12894.906500       0.998361
    12911.555800       0.998666
    12928.248200       0.998939
    12944.983800       0.999181
    12961.762800       0.999390
    12978.585300       0.999569
    12995.451600       0.999716
    13012.361700       0.999833
    13029.316000       0.999919
    13046.314400       0.999975
    13063.357300       1.000000
    13080.444700       0.999996
    13097.576900       0.999962
    13114.754100       0.999898
    13131.976400       0.999806
    13149.243900       0.999684
    13166.556900       0.999535
    13183.915600       0.999356
    13201.320100       0.999150
    13218.770700       0.998916
    13236.267400       0.998655
    13253.810500       0.998367
    13271.400100       0.998052
    13289.036500       0.997710
    13306.719900       0.997342
    13324.450400       0.996948
    13342.228200       0.996529
    13360.053400       0.996084
    13377.926400       0.995615
    13395.847300       0.995121
    13413.816200       0.994603
    13431.833400       0.994061
    13449.899100       0.993495
    13468.013500       0.992906
    13486.176700       0.992294
    13504.388900       0.991660
    13522.650400       0.991003
    13540.961400       0.990325
    13559.322000       0.989625
    13577.732500       0.988905
    13596.193100       0.988163
    13614.703900       0.987402
    13633.265200       0.986620
    13651.877100       0.985819
    13670.540000       0.984998
    13689.253900       0.984159
    13708.019200       0.983302
    13726.836000       0.982426
    13745.704500       0.981533
    13764.624900       0.980622
    13783.597500       0.979695
    13802.622500       0.978751
    13821.700100       0.977792
    13840.830400       0.976816
    13860.013900       0.975826
    13879.250500       0.974820
    13898.540700       0.973800
    13917.884500       0.972766
    13937.282200       0.971719
    13956.734100       0.970658
    13976.240400       0.969585
    13995.801300       0.968499
    14015.417000       0.967402
    14035.087700       0.966293
    14054.813800       0.965172
    14074.595400       0.964041
    14094.432700       0.962900
    14114.326000       0.961749
    14134.275600       0.960589
    14154.281700       0.959419
    14174.344400       0.958241
    14194.464200       0.957055
    14214.641100       0.955861
    14234.875400       0.954659
    14255.167500       0.953451
    14275.517500       0.952236
    14295.925700       0.951015
    14316.392300       0.949789
    14336.917600       0.948557
    14357.501800       0.947321
    14378.145200       0.946080
    14398.848100       0.944835
    14419.610700       0.943586
    14440.433200       0.942334
    14461.316000       0.941079
    14482.259200       0.939823
    14503.263200       0.938564
    14524.328200       0.937303
    14545.454500       0.936042
    14566.642400       0.934779
    14587.892000       0.933516
    14609.203800       0.932254
    14630.577900       0.930991
    14652.014700       0.929730
    14673.514300       0.928470
    14695.077100       0.927211
    14716.703500       0.925954
    14738.393500       0.924700
    14760.147600       0.923448
    14781.966000       0.922200
    14803.849000       0.920954
    14825.796900       0.919713
    14847.809900       0.918476
    14869.888500       0.917244
    14892.032800       0.916016
    14914.243100       0.914793
    14936.519800       0.913577
    14958.863100       0.912366
    14981.273400       0.911161
    15003.750900       0.909963
    15026.296000       0.908772
    15048.909000       0.907588
    15071.590100       0.906412
    15094.339600       0.905244
    15117.158000       0.904083
    15140.045400       0.902932
    15163.002300       0.901789
    15186.028900       0.900655
    15209.125500       0.899531
    15232.292500       0.898416
    15255.530100       0.897311
    15278.838800       0.896216
    15302.218800       0.895132
    15325.670500       0.894059
    15349.194200       0.892996
    15372.790200       0.891945
    15396.458800       0.890905
    15420.200500       0.889877
    15444.015400       0.888860
    15467.904100       0.887856
    15491.866800       0.886864
    15515.903800       0.885885
    15540.015500       0.884919
    15564.202300       0.883965
    15588.464500       0.883025
    15612.802500       0.882097
    15637.216600       0.881184
    15661.707100       0.880283
    15686.274500       0.879397
    15710.919100       0.878525
    15735.641200       0.877666
    15760.441300       0.876822
    15785.319700       0.875992
    15810.276700       0.875177
    15835.312700       0.874376
    15860.428200       0.873589
    15885.623500       0.872818
    15910.899000       0.872061
    15936.255000       0.871319
    15961.691900       0.870592
    15987.210200       0.869879
    16012.810200       0.869182
    16038.492400       0.868500
    16064.257000       0.867833
    16090.104600       0.867181
    16116.035500       0.866544
    16142.050000       0.865923
    16168.148700       0.865316
    16194.332000       0.864725
    16220.600200       0.864148
    16246.953700       0.863587
    16273.393000       0.863040
    16299.918500       0.862508
    16326.530600       0.861992
    16353.229800       0.861490
    16380.016400       0.861002
    16406.890900       0.860530
    16433.853700       0.860071
    16460.905300       0.859627
    16488.046200       0.859198
    16515.276600       0.858782
    16542.597200       0.858380
    16570.008300       0.857992
    16597.510400       0.857618
    16625.103900       0.857257
    16652.789300       0.856909
    16680.567100       0.856575
    16708.437800       0.856253
    16736.401700       0.855944
    16764.459300       0.855647
    16792.611300       0.855363
    16820.857900       0.855090
    16849.199700       0.854829
    16877.637100       0.854580
    16906.170800       0.854341
    16934.801000       0.854114
    16963.528400       0.853896
    16992.353400       0.853689
    17021.276600       0.853492
    17050.298400       0.853305
    17079.419300       0.853126
    17108.639900       0.852957
    17137.960600       0.852796
    17167.382000       0.852643
    17196.904600       0.852497
    17226.528900       0.852359
    17256.255400       0.852228
    17286.084700       0.852104
    17316.017300       0.851985
    17346.053800       0.851872
    17376.194600       0.851764
    17406.440400       0.851661
    17436.791600       0.851562
    17467.248900       0.851467
    17497.812800       0.851376
    17528.483800       0.851286
    17559.262500       0.851200
    17590.149500       0.851114
    17621.145400       0.851031
    17652.250700       0.850947
    17683.466000       0.850864
    17714.791900       0.850781
    17746.228900       0.850696
    17777.777800       0.850610
    17809.439000       0.850521
    17841.213200       0.850430
    17873.101000       0.850335
    17905.103000       0.850236
    17937.219700       0.850133
    17969.451900       0.850024
    18001.800200       0.849910
    18034.265100       0.849788
    18066.847300       0.849660
    18099.547500       0.849523
    18132.366300       0.849378
    18165.304300       0.849224
    18198.362100       0.849059
    18231.540600       0.848884
    18264.840200       0.848697
    18298.261700       0.848498
    18331.805700       0.848286
    18365.472900       0.848061
    18399.264000       0.847821
    18433.179700       0.847566
    18467.220700       0.847295
    18501.387600       0.847007
    18535.681200       0.846702
    18570.102100       0.846378
    18604.651200       0.846035
    18639.329000       0.845673
    18674.136300       0.845290
    18709.073900       0.844885
    18744.142500       0.844458
    18779.342700       0.844008
    18814.675400       0.843533
    18850.141400       0.843034
    18885.741300       0.842509
    18921.475900       0.841958
    18957.346000       0.841379
    18993.352300       0.840772
    19029.495700       0.840136
    19065.776900       0.839470
    19102.196800       0.838773
    19138.756000       0.838044
    19175.455400       0.837283
    19212.295900       0.836488
    19249.278200       0.835658
    19286.403100       0.834794
    19323.671500       0.833893
    19361.084200       0.832955
    19398.642100       0.831979
    19436.346000       0.830963
    19474.196700       0.829909
    19512.195100       0.828813
    19550.342100       0.827676
    19588.638600       0.826496
    19627.085400       0.825272
    19665.683400       0.824004
    19704.433500       0.822691
    19743.336600       0.821332
    19782.393700       0.819925
    19821.605600       0.818470
    19860.973200       0.816966
    19900.497500       0.815413
    19940.179500       0.813808
    19980.020000       0.812152
    20020.020000       0.810443
    20060.180500       0.808680
    20100.502500       0.806863
    20140.986900       0.804990
    20181.634700       0.803061
    20222.446900       0.801075
    20263.424500       0.799031
    20304.568500       0.796928
    20345.880000       0.794765
    20387.359800       0.792541
    20429.009200       0.790255
    20470.829100       0.787907
    20512.820500       0.785496
    20554.984600       0.783020
    20597.322300       0.780479
    20639.834900       0.777872
    20682.523300       0.775198
    20725.388600       0.772457
    20768.432000       0.769647
    20811.654500       0.766768
    20855.057400       0.763818
    20898.641600       0.760798
    20942.408400       0.757706
    20986.358900       0.754541
    21030.494200       0.751304
    21074.815600       0.747992
    21119.324200       0.744605
    21164.021200       0.741143
    21208.907700       0.737605
    21253.985100       0.733989
    21299.254500       0.730296
    21344.717200       0.726525
    21390.374300       0.722674
    21436.227200       0.718744
    21482.277100       0.714733
    21528.525300       0.710642
    21574.973000       0.706469
    21621.621600       0.702213
    21668.472400       0.697875
    21715.526600       0.693453
    21762.785600       0.688948
    21810.250800       0.684357
    21857.923500       0.679682
    21905.805000       0.674922
    21953.896800       0.670075
    22002.200200       0.665142
    22050.716600       0.660122
    22099.447500       0.655015
    22148.394200       0.649820
    22197.558300       0.644537
    22246.941000       0.639165
    22296.544000       0.633705
    22346.368700       0.628156
    22396.416600       0.622517
    22446.689100       0.616789
    22497.187900       0.610970
    22547.914300       0.605062
    22598.870100       0.599063
    22650.056600       0.592974
    22701.475600       0.586794
    22753.128600       0.580524
    22805.017100       0.574163
    22857.142900       0.567711
    22909.507400       0.561168
    22962.112500       0.554534
    23014.959700       0.547809
    23068.050700       0.540993
    23121.387300       0.534087
    23174.971000       0.527090
    23228.803700       0.520003
    23282.887100       0.512826
    23337.222900       0.505559
    23391.812900       0.498202
    23446.658900       0.490755
    23501.762600       0.483219
    23557.126000       0.475595
    23612.750900       0.467882
    23668.639100       0.460081
    23724.792400       0.452193
    23781.212800       0.444218
    23837.902300       0.436156
    23894.862600       0.428009
    23952.095800       0.419776
    24009.603800       0.411459
    24067.388700       0.403058
    24125.452400       0.394574
    24183.796900       0.386007
    24242.424200       0.377359
    24301.336600       0.368631
    24360.535900       0.359822
    24420.024400       0.350936
    24479.804200       0.341971
    24539.877300       0.332930
    24600.246000       0.323813
    24660.912500       0.314621
    24721.878900       0.305357
    24783.147500       0.296020
    24844.720500       0.286613
    24906.600200       0.277136
    24968.789000       0.267592
    25031.289100       0.257980
    25094.102900       0.248304
    25157.232700       0.238564
    25220.681000       0.228762
    25284.450100       0.218900
    25348.542500       0.208979
    25412.960600       0.199002
    25477.707000       0.188970
