   2  ,noaa_12_hirs_02.flt
Number of data points:
102
Wavenumber (cm-1)   Filter response
      658.000000       0.000000
      658.430000       0.000195
      658.870000       0.000198
      659.310000       0.000201
      659.740000       0.000205
      660.180000       0.000208
      660.620000       0.000212
      661.050000       0.000215
      661.490000       0.002481
      661.930000       0.002497
      662.370000       0.004001
      662.800000       0.004715
      663.260000       0.005422
      663.700000       0.007095
      664.150000       0.007499
      664.600000       0.008732
      665.040000       0.009385
      665.480000       0.010879
      665.930000       0.011192
      666.370000       0.011269
      666.810000       0.013058
      667.260000       0.019687
      667.700000       0.024590
      668.160000       0.030144
      668.600000       0.038124
      669.040000       0.050606
      669.480000       0.065947
      669.920000       0.086392
      670.360000       0.112560
      670.810000       0.140870
      671.250000       0.179060
      671.690000       0.238790
      672.140000       0.313070
      672.570000       0.391050
      673.000000       0.480580
      673.450000       0.584750
      673.890000       0.657250
      674.340000       0.711600
      674.770000       0.754310
      675.210000       0.788810
      675.650000       0.816330
      676.090000       0.837570
      676.530000       0.856010
      676.980000       0.874220
      677.430000       0.893080
      677.870000       0.906910
      678.320000       0.916300
      678.770000       0.928100
      679.220000       0.944520
      679.680000       0.953550
      680.120000       0.961880
      680.570000       0.974430
      681.030000       0.983890
      681.480000       0.992210
      681.930000       0.997330
      682.380000       1.000000
      682.830000       0.999950
      683.290000       0.996950
      683.740000       0.993070
      684.180000       0.974100
      684.640000       0.936310
      685.090000       0.879340
      685.540000       0.795410
      685.990000       0.691210
      686.440000       0.568340
      686.880000       0.474070
      687.360000       0.377590
      687.780000       0.292520
      688.270000       0.232780
      688.680000       0.169130
      689.140000       0.133430
      689.590000       0.109360
      690.030000       0.088404
      690.480000       0.065694
      690.930000       0.051172
      691.380000       0.042979
      691.820000       0.043372
      692.260000       0.041850
      692.710000       0.030465
      693.160000       0.023334
      693.610000       0.022126
      694.050000       0.020496
      694.490000       0.020641
      694.940000       0.019175
      695.380000       0.019309
      695.820000       0.017605
      696.270000       0.017727
      696.710000       0.015777
      697.160000       0.015884
      697.600000       0.012837
      698.040000       0.012444
      698.490000       0.012522
      698.940000       0.010664
      699.390000       0.010725
      699.840000       0.008824
      700.280000       0.008870
      700.730000       0.006926
      701.180000       0.004289
      701.630000       0.004304
      702.080000       0.002287
      702.530000       0.002288
      703.020000       0.000000
