31,   31, MVIRI VIS channel from srf_MET5_1995033_1995034_1801-Release_S10EL_10.dat
Number of data points:
806
Wavenumber (cm-1)   Filter response
     8350.730700       0.000000
     8357.710000       0.000000
     8364.701000       0.000000
     8371.703600       0.000001
     8378.718100       0.000004
     8385.744200       0.000009
     8392.782200       0.000016
     8399.832000       0.000026
     8406.893700       0.000040
     8413.967200       0.000058
     8421.052600       0.000081
     8428.150000       0.000109
     8435.259400       0.000142
     8442.380800       0.000181
     8449.514200       0.000227
     8456.659600       0.000279
     8463.817200       0.000338
     8470.986900       0.000405
     8478.168700       0.000480
     8485.362700       0.000563
     8492.569000       0.000654
     8499.787500       0.000754
     8507.018300       0.000864
     8514.261400       0.000983
     8521.516800       0.001112
     8528.784600       0.001251
     8536.064900       0.001400
     8543.357500       0.001559
     8550.662700       0.001730
     8557.980300       0.001912
     8565.310500       0.002105
     8572.653200       0.002310
     8580.008600       0.002526
     8587.376600       0.002755
     8594.757200       0.002996
     8602.150500       0.003249
     8609.556600       0.003515
     8616.975400       0.003794
     8624.407100       0.004086
     8631.851500       0.004391
     8639.308900       0.004710
     8646.779100       0.005042
     8654.262200       0.005388
     8661.758300       0.005748
     8669.267400       0.006122
     8676.789600       0.006510
     8684.324800       0.006912
     8691.873100       0.007329
     8699.434500       0.007761
     8707.009100       0.008208
     8714.596900       0.008670
     8722.198000       0.009146
     8729.812300       0.009638
     8737.439900       0.010146
     8745.080900       0.010669
     8752.735200       0.011207
     8760.403000       0.011762
     8768.084200       0.012332
     8775.778900       0.012918
     8783.487000       0.013521
     8791.208800       0.014140
     8798.944100       0.014775
     8806.693100       0.015427
     8814.455700       0.016095
     8822.232000       0.016780
     8830.022100       0.017482
     8837.825900       0.018201
     8845.643500       0.018936
     8853.475000       0.019690
     8861.320300       0.020460
     8869.179600       0.021248
     8877.052800       0.022053
     8884.940000       0.022876
     8892.841300       0.023717
     8900.756600       0.024575
     8908.686000       0.025452
     8916.629500       0.026346
     8924.587200       0.027259
     8932.559200       0.028190
     8940.545400       0.029139
     8948.545900       0.030107
     8956.560700       0.031093
     8964.589900       0.032098
     8972.633500       0.033122
     8980.691500       0.034165
     8988.764000       0.035227
     8996.851100       0.036307
     9004.952700       0.037407
     9013.068900       0.038526
     9021.199800       0.039665
     9029.345400       0.040823
     9037.505600       0.042000
     9045.680700       0.043198
     9053.870500       0.044415
     9062.075200       0.045652
     9070.294800       0.046909
     9078.529300       0.048186
     9086.778700       0.049483
     9095.043200       0.050801
     9103.322700       0.052138
     9111.617300       0.053497
     9119.927000       0.054876
     9128.251900       0.056275
     9136.592100       0.057695
     9144.947400       0.059137
     9153.318100       0.060599
     9161.704100       0.062082
     9170.105500       0.063586
     9178.522300       0.065111
     9186.954500       0.066658
     9195.402300       0.068226
     9203.865600       0.069816
     9212.344500       0.071427
     9220.839100       0.073059
     9229.349300       0.074714
     9237.875300       0.076390
     9246.417000       0.078088
     9254.974500       0.079808
     9263.547900       0.081551
     9272.137200       0.083315
     9280.742500       0.085101
     9289.363700       0.086910
     9298.000900       0.088741
     9306.654300       0.090595
     9315.323700       0.092471
     9324.009300       0.094369
     9332.711200       0.096290
     9341.429200       0.098234
     9350.163600       0.100201
     9358.914400       0.102190
     9367.681500       0.104202
     9376.465100       0.106238
     9385.265100       0.108296
     9394.081700       0.110377
     9402.914900       0.112481
     9411.764700       0.114608
     9420.631200       0.116759
     9429.514400       0.118933
     9438.414300       0.121130
     9447.331100       0.123350
     9456.264800       0.125594
     9465.215300       0.127861
     9474.182900       0.130151
     9483.167400       0.132465
     9492.169000       0.134802
     9501.187600       0.137162
     9510.223500       0.139547
     9519.276500       0.141954
     9528.346800       0.144385
     9537.434400       0.146840
     9546.539400       0.149318
     9555.661700       0.151820
     9564.801500       0.154345
     9573.958800       0.156894
     9583.133700       0.159466
     9592.326100       0.162062
     9601.536200       0.164681
     9610.764100       0.167324
     9620.009600       0.169990
     9629.273000       0.172680
     9638.554200       0.175393
     9647.853400       0.178129
     9657.170400       0.180889
     9666.505600       0.183672
     9675.858700       0.186479
     9685.230000       0.189308
     9694.619500       0.192161
     9704.027200       0.195037
     9713.453100       0.197936
     9722.897400       0.200859
     9732.360100       0.203803
     9741.841200       0.206771
     9751.340800       0.209762
     9760.859000       0.212776
     9770.395700       0.215812
     9779.951100       0.218871
     9789.525200       0.221952
     9799.118100       0.225056
     9808.729800       0.228182
     9818.360300       0.231330
     9828.009800       0.234501
     9837.678300       0.237693
     9847.365800       0.240908
     9857.072400       0.244143
     9866.798200       0.247401
     9876.543200       0.250680
     9886.307500       0.253981
     9896.091000       0.257304
     9905.894000       0.260647
     9915.716400       0.264011
     9925.558300       0.267396
     9935.419800       0.270802
     9945.300800       0.274228
     9955.201600       0.277675
     9965.122100       0.281142
     9975.062300       0.284629
     9985.022500       0.288136
     9995.002500       0.291663
    10005.002500       0.295210
    10015.022500       0.298776
    10025.062700       0.302361
    10035.122900       0.305965
    10045.203400       0.309587
    10055.304200       0.313229
    10065.425300       0.316889
    10075.566800       0.320567
    10085.728700       0.324263
    10095.911200       0.327977
    10106.114200       0.331709
    10116.337900       0.335458
    10126.582300       0.339224
    10136.847400       0.343007
    10147.133400       0.346806
    10157.440300       0.350622
    10167.768200       0.354454
    10178.117000       0.358303
    10188.487000       0.362166
    10198.878100       0.366046
    10209.290500       0.369940
    10219.724100       0.373849
    10230.179000       0.377773
    10240.655400       0.381712
    10251.153300       0.385664
    10261.672700       0.389631
    10272.213700       0.393610
    10282.776300       0.397603
    10293.360800       0.401610
    10303.967000       0.405628
    10314.595200       0.409659
    10325.245200       0.413703
    10335.917300       0.417758
    10346.611500       0.421824
    10357.327800       0.425902
    10368.066400       0.429990
    10378.827200       0.434089
    10389.610400       0.438199
    10400.416000       0.442318
    10411.244100       0.446447
    10422.094800       0.450585
    10432.968200       0.454732
    10443.864200       0.458888
    10454.783100       0.463051
    10465.724800       0.467223
    10476.689400       0.471402
    10487.677000       0.475589
    10498.687700       0.479783
    10509.721500       0.483983
    10520.778500       0.488189
    10531.858900       0.492401
    10542.962600       0.496618
    10554.089700       0.500841
    10565.240400       0.505068
    10576.414600       0.509300
    10587.612500       0.513535
    10598.834100       0.517775
    10610.079600       0.522018
    10621.348900       0.526263
    10632.642200       0.530511
    10643.959600       0.534762
    10655.301000       0.539013
    10666.666700       0.543267
    10678.056600       0.547521
    10689.470900       0.551776
    10700.909600       0.556032
    10712.372800       0.560287
    10723.860600       0.564541
    10735.373100       0.568795
    10746.910300       0.573047
    10758.472300       0.577298
    10770.059200       0.581547
    10781.671200       0.585793
    10793.308100       0.590036
    10804.970300       0.594276
    10816.657700       0.598512
    10828.370300       0.602744
    10840.108400       0.606972
    10851.871900       0.611195
    10863.661100       0.615412
    10875.475800       0.619624
    10887.316300       0.623830
    10899.182600       0.628029
    10911.074700       0.632222
    10922.992900       0.636407
    10934.937100       0.640585
    10946.907500       0.644754
    10958.904100       0.648915
    10970.927000       0.653067
    10982.976400       0.657210
    10995.052200       0.661343
    11007.154700       0.665467
    11019.283700       0.669579
    11031.439600       0.673681
    11043.622300       0.677772
    11055.832000       0.681851
    11068.068600       0.685918
    11080.332400       0.689972
    11092.623400       0.694014
    11104.941700       0.698042
    11117.287400       0.702057
    11129.660500       0.706057
    11142.061300       0.710044
    11154.489700       0.714015
    11166.945800       0.717972
    11179.429800       0.721913
    11191.941800       0.725838
    11204.481800       0.729746
    11217.049900       0.733638
    11229.646300       0.737513
    11242.270900       0.741370
    11254.924000       0.745210
    11267.605600       0.749031
    11280.315800       0.752834
    11293.054800       0.756617
    11305.822500       0.760382
    11318.619100       0.764127
    11331.444800       0.767852
    11344.299500       0.771556
    11357.183400       0.775240
    11370.096600       0.778903
    11383.039300       0.782544
    11396.011400       0.786163
    11409.013100       0.789761
    11422.044500       0.793335
    11435.105800       0.796888
    11448.196900       0.800417
    11461.318100       0.803922
    11474.469300       0.807404
    11487.650800       0.810861
    11500.862600       0.814294
    11514.104800       0.817703
    11527.377500       0.821086
    11540.680900       0.824444
    11554.015000       0.827776
    11567.380000       0.831082
    11580.775900       0.834362
    11594.202900       0.837616
    11607.661100       0.840842
    11621.150500       0.844042
    11634.671300       0.847214
    11648.223600       0.850358
    11661.807600       0.853474
    11675.423200       0.856562
    11689.070700       0.859622
    11702.750100       0.862652
    11716.461600       0.865654
    11730.205300       0.868626
    11743.981200       0.871569
    11757.789500       0.874482
    11771.630400       0.877365
    11785.503800       0.880217
    11799.410000       0.883040
    11813.349100       0.885831
    11827.321100       0.888592
    11841.326200       0.891321
    11855.364600       0.894019
    11869.436200       0.896686
    11883.541300       0.899320
    11897.680000       0.901923
    11911.852300       0.904494
    11926.058400       0.907032
    11940.298500       0.909538
    11954.572600       0.912011
    11968.880900       0.914451
    11983.223500       0.916858
    11997.600500       0.919232
    12012.012000       0.921573
    12026.458200       0.923881
    12040.939200       0.926154
    12055.455100       0.928394
    12070.006000       0.930601
    12084.592100       0.932773
    12099.213600       0.934911
    12113.870400       0.937014
    12128.562800       0.939084
    12143.290800       0.941119
    12158.054700       0.943120
    12172.854500       0.945086
    12187.690400       0.947017
    12202.562500       0.948913
    12217.471000       0.950775
    12232.415900       0.952602
    12247.397400       0.954394
    12262.415700       0.956150
    12277.470800       0.957872
    12292.563000       0.959559
    12307.692300       0.961210
    12322.858900       0.962827
    12338.062900       0.964408
    12353.304500       0.965954
    12368.583800       0.967465
    12383.900900       0.968940
    12399.256000       0.970380
    12414.649300       0.971785
    12430.080800       0.973155
    12445.550700       0.974490
    12461.059200       0.975790
    12476.606400       0.977054
    12492.192400       0.978283
    12507.817400       0.979478
    12523.481500       0.980637
    12539.185000       0.981761
    12554.927800       0.982851
    12570.710200       0.983906
    12586.532400       0.984926
    12602.394500       0.985911
    12618.296500       0.986862
    12634.238800       0.987778
    12650.221400       0.988660
    12666.244500       0.989508
    12682.308200       0.990321
    12698.412700       0.991100
    12714.558200       0.991846
    12730.744700       0.992558
    12746.972600       0.993236
    12763.241900       0.993880
    12779.552700       0.994492
    12795.905300       0.995070
    12812.299800       0.995615
    12828.736400       0.996127
    12845.215200       0.996606
    12861.736300       0.997053
    12878.300100       0.997467
    12894.906500       0.997849
    12911.555800       0.998199
    12928.248200       0.998518
    12944.983800       0.998805
    12961.762800       0.999060
    12978.585300       0.999284
    12995.451600       0.999478
    13012.361700       0.999640
    13029.316000       0.999772
    13046.314400       0.999874
    13063.357300       0.999946
    13080.444700       0.999988
    13097.576900       1.000000
    13114.754100       0.999983
    13131.976400       0.999937
    13149.243900       0.999863
    13166.556900       0.999760
    13183.915600       0.999628
    13201.320100       0.999469
    13218.770700       0.999282
    13236.267400       0.999068
    13253.810500       0.998827
    13271.400100       0.998559
    13289.036500       0.998264
    13306.719900       0.997944
    13324.450400       0.997597
    13342.228200       0.997225
    13360.053400       0.996828
    13377.926400       0.996406
    13395.847300       0.995959
    13413.816200       0.995489
    13431.833400       0.994994
    13449.899100       0.994476
    13468.013500       0.993934
    13486.176700       0.993370
    13504.388900       0.992783
    13522.650400       0.992174
    13540.961400       0.991544
    13559.322000       0.990891
    13577.732500       0.990218
    13596.193100       0.989524
    13614.703900       0.988810
    13633.265200       0.988076
    13651.877100       0.987322
    13670.540000       0.986550
    13689.253900       0.985758
    13708.019200       0.984948
    13726.836000       0.984120
    13745.704500       0.983274
    13764.624900       0.982411
    13783.597500       0.981531
    13802.622500       0.980635
    13821.700100       0.979722
    13840.830400       0.978794
    13860.013900       0.977851
    13879.250500       0.976893
    13898.540700       0.975920
    13917.884500       0.974933
    13937.282200       0.973933
    13956.734100       0.972920
    13976.240400       0.971893
    13995.801300       0.970855
    14015.417000       0.969804
    14035.087700       0.968742
    14054.813800       0.967668
    14074.595400       0.966584
    14094.432700       0.965490
    14114.326000       0.964385
    14134.275600       0.963272
    14154.281700       0.962149
    14174.344400       0.961017
    14194.464200       0.959878
    14214.641100       0.958730
    14234.875400       0.957575
    14255.167500       0.956413
    14275.517500       0.955245
    14295.925700       0.954070
    14316.392300       0.952890
    14336.917600       0.951705
    14357.501800       0.950514
    14378.145200       0.949319
    14398.848100       0.948120
    14419.610700       0.946918
    14440.433200       0.945712
    14461.316000       0.944503
    14482.259200       0.943292
    14503.263200       0.942079
    14524.328200       0.940865
    14545.454500       0.939649
    14566.642400       0.938432
    14587.892000       0.937215
    14609.203800       0.935998
    14630.577900       0.934781
    14652.014700       0.933566
    14673.514300       0.932351
    14695.077100       0.931138
    14716.703500       0.929927
    14738.393500       0.928718
    14760.147600       0.927512
    14781.966000       0.926308
    14803.849000       0.925109
    14825.796900       0.923913
    14847.809900       0.922721
    14869.888500       0.921534
    14892.032800       0.920352
    14914.243100       0.919175
    14936.519800       0.918003
    14958.863100       0.916838
    14981.273400       0.915678
    15003.750900       0.914526
    15026.296000       0.913380
    15048.909000       0.912241
    15071.590100       0.911111
    15094.339600       0.909988
    15117.158000       0.908873
    15140.045400       0.907766
    15163.002300       0.906669
    15186.028900       0.905581
    15209.125500       0.904502
    15232.292500       0.903432
    15255.530100       0.902373
    15278.838800       0.901324
    15302.218800       0.900285
    15325.670500       0.899257
    15349.194200       0.898240
    15372.790200       0.897235
    15396.458800       0.896241
    15420.200500       0.895258
    15444.015400       0.894288
    15467.904100       0.893330
    15491.866800       0.892384
    15515.903800       0.891451
    15540.015500       0.890530
    15564.202300       0.889623
    15588.464500       0.888729
    15612.802500       0.887848
    15637.216600       0.886981
    15661.707100       0.886127
    15686.274500       0.885287
    15710.919100       0.884462
    15735.641200       0.883650
    15760.441300       0.882853
    15785.319700       0.882070
    15810.276700       0.881301
    15835.312700       0.880548
    15860.428200       0.879809
    15885.623500       0.879084
    15910.899000       0.878375
    15936.255000       0.877681
    15961.691900       0.877002
    15987.210200       0.876337
    16012.810200       0.875688
    16038.492400       0.875054
    16064.257000       0.874436
    16090.104600       0.873832
    16116.035500       0.873244
    16142.050000       0.872671
    16168.148700       0.872114
    16194.332000       0.871571
    16220.600200       0.871044
    16246.953700       0.870532
    16273.393000       0.870035
    16299.918500       0.869553
    16326.530600       0.869086
    16353.229800       0.868634
    16380.016400       0.868197
    16406.890900       0.867775
    16433.853700       0.867367
    16460.905300       0.866974
    16488.046200       0.866595
    16515.276600       0.866230
    16542.597200       0.865880
    16570.008300       0.865543
    16597.510400       0.865221
    16625.103900       0.864912
    16652.789300       0.864616
    16680.567100       0.864334
    16708.437800       0.864064
    16736.401700       0.863808
    16764.459300       0.863564
    16792.611300       0.863332
    16820.857900       0.863113
    16849.199700       0.862905
    16877.637100       0.862709
    16906.170800       0.862524
    16934.801000       0.862350
    16963.528400       0.862187
    16992.353400       0.862034
    17021.276600       0.861892
    17050.298400       0.861759
    17079.419300       0.861635
    17108.639900       0.861520
    17137.960600       0.861414
    17167.382000       0.861317
    17196.904600       0.861227
    17226.528900       0.861145
    17256.255400       0.861069
    17286.084700       0.861001
    17316.017300       0.860938
    17346.053800       0.860882
    17376.194600       0.860830
    17406.440400       0.860784
    17436.791600       0.860742
    17467.248900       0.860703
    17497.812800       0.860669
    17528.483800       0.860637
    17559.262500       0.860607
    17590.149500       0.860579
    17621.145400       0.860553
    17652.250700       0.860527
    17683.466000       0.860502
    17714.791900       0.860476
    17746.228900       0.860450
    17777.777800       0.860421
    17809.439000       0.860391
    17841.213200       0.860358
    17873.101000       0.860321
    17905.103000       0.860281
    17937.219700       0.860236
    17969.451900       0.860186
    18001.800200       0.860129
    18034.265100       0.860067
    18066.847300       0.859997
    18099.547500       0.859919
    18132.366300       0.859832
    18165.304300       0.859736
    18198.362100       0.859630
    18231.540600       0.859513
    18264.840200       0.859385
    18298.261700       0.859244
    18331.805700       0.859090
    18365.472900       0.858923
    18399.264000       0.858741
    18433.179700       0.858544
    18467.220700       0.858331
    18501.387600       0.858100
    18535.681200       0.857853
    18570.102100       0.857587
    18604.651200       0.857301
    18639.329000       0.856996
    18674.136300       0.856669
    18709.073900       0.856321
    18744.142500       0.855950
    18779.342700       0.855556
    18814.675400       0.855137
    18850.141400       0.854694
    18885.741300       0.854224
    18921.475900       0.853728
    18957.346000       0.853204
    18993.352300       0.852651
    19029.495700       0.852069
    19065.776900       0.851456
    19102.196800       0.850812
    19138.756000       0.850136
    19175.455400       0.849426
    19212.295900       0.848683
    19249.278200       0.847905
    19286.403100       0.847090
    19323.671500       0.846240
    19361.084200       0.845351
    19398.642100       0.844424
    19436.346000       0.843457
    19474.196700       0.842450
    19512.195100       0.841401
    19550.342100       0.840310
    19588.638600       0.839176
    19627.085400       0.837998
    19665.683400       0.836774
    19704.433500       0.835504
    19743.336600       0.834187
    19782.393700       0.832822
    19821.605600       0.831408
    19860.973200       0.829945
    19900.497500       0.828430
    19940.179500       0.826864
    19980.020000       0.825245
    20020.020000       0.823572
    20060.180500       0.821845
    20100.502500       0.820062
    20140.986900       0.818222
    20181.634700       0.816326
    20222.446900       0.814370
    20263.424500       0.812356
    20304.568500       0.810281
    20345.880000       0.808145
    20387.359800       0.805948
    20429.009200       0.803687
    20470.829100       0.801362
    20512.820500       0.798973
    20554.984600       0.796518
    20597.322300       0.793997
    20639.834900       0.791408
    20682.523300       0.788750
    20725.388600       0.786024
    20768.432000       0.783228
    20811.654500       0.780360
    20855.057400       0.777421
    20898.641600       0.774410
    20942.408400       0.771325
    20986.358900       0.768166
    21030.494200       0.764932
    21074.815600       0.761622
    21119.324200       0.758235
    21164.021200       0.754771
    21208.907700       0.751229
    21253.985100       0.747608
    21299.254500       0.743908
    21344.717200       0.740127
    21390.374300       0.736265
    21436.227200       0.732322
    21482.277100       0.728296
    21528.525300       0.724186
    21574.973000       0.719993
    21621.621600       0.715716
    21668.472400       0.711354
    21715.526600       0.706906
    21762.785600       0.702372
    21810.250800       0.697751
    21857.923500       0.693042
    21905.805000       0.688246
    21953.896800       0.683362
    22002.200200       0.678388
    22050.716600       0.673325
    22099.447500       0.668173
    22148.394200       0.662930
    22197.558300       0.657596
    22246.941000       0.652172
    22296.544000       0.646656
    22346.368700       0.641048
    22396.416600       0.635348
    22446.689100       0.629556
    22497.187900       0.623671
    22547.914300       0.617693
    22598.870100       0.611622
    22650.056600       0.605458
    22701.475600       0.599200
    22753.128600       0.592848
    22805.017100       0.586403
    22857.142900       0.579864
    22909.507400       0.573231
    22962.112500       0.566505
    23014.959700       0.559684
    23068.050700       0.552769
    23121.387300       0.545761
    23174.971000       0.538659
    23228.803700       0.531463
    23282.887100       0.524174
    23337.222900       0.516792
    23391.812900       0.509317
    23446.658900       0.501749
    23501.762600       0.494089
    23557.126000       0.486336
    23612.750900       0.478492
    23668.639100       0.470557
    23724.792400       0.462531
    23781.212800       0.454414
    23837.902300       0.446208
    23894.862600       0.437913
    23952.095800       0.429528
    24009.603800       0.421056
    24067.388700       0.412497
    24125.452400       0.403851
    24183.796900       0.395120
    24242.424200       0.386303
    24301.336600       0.377402
    24360.535900       0.368418
    24420.024400       0.359352
    24479.804200       0.350205
    24539.877300       0.340977
    24600.246000       0.331671
    24660.912500       0.322287
    24721.878900       0.312825
    24783.147500       0.303289
    24844.720500       0.293678
    24906.600200       0.283994
    24968.789000       0.274239
    25031.289100       0.264414
    25094.102900       0.254520
    25157.232700       0.244560
    25220.681000       0.234534
    25284.450100       0.224444
    25348.542500       0.214293
    25412.960600       0.204081
    25477.707000       0.193811
