20,   20, MVIRI VIS channel from srf_MET7_2000033_2000034_1801-Release_S10EE_10.dat
Number of data points:
793
Wavenumber (cm-1)   Filter response
     8442.380800       0.000000
     8449.514200       0.000000
     8456.659600       0.000004
     8463.817200       0.000053
     8470.986900       0.000155
     8478.168700       0.000311
     8485.362700       0.000518
     8492.569000       0.000774
     8499.787500       0.001079
     8507.018300       0.001430
     8514.261400       0.001827
     8521.516800       0.002268
     8528.784600       0.002752
     8536.064900       0.003278
     8543.357500       0.003845
     8550.662700       0.004451
     8557.980300       0.005095
     8565.310500       0.005778
     8572.653200       0.006496
     8580.008600       0.007250
     8587.376600       0.008039
     8594.757200       0.008861
     8602.150500       0.009716
     8609.556600       0.010604
     8616.975400       0.011523
     8624.407100       0.012472
     8631.851500       0.013451
     8639.308900       0.014460
     8646.779100       0.015497
     8654.262200       0.016562
     8661.758300       0.017654
     8669.267400       0.018773
     8676.789600       0.019919
     8684.324800       0.021090
     8691.873100       0.022287
     8699.434500       0.023509
     8707.009100       0.024755
     8714.596900       0.026025
     8722.198000       0.027319
     8729.812300       0.028636
     8737.439900       0.029977
     8745.080900       0.031340
     8752.735200       0.032725
     8760.403000       0.034133
     8768.084200       0.035562
     8775.778900       0.037013
     8783.487000       0.038486
     8791.208800       0.039980
     8798.944100       0.041495
     8806.693100       0.043031
     8814.455700       0.044588
     8822.232000       0.046165
     8830.022100       0.047763
     8837.825900       0.049381
     8845.643500       0.051020
     8853.475000       0.052678
     8861.320300       0.054357
     8869.179600       0.056056
     8877.052800       0.057775
     8884.940000       0.059514
     8892.841300       0.061274
     8900.756600       0.063053
     8908.686000       0.064852
     8916.629500       0.066671
     8924.587200       0.068510
     8932.559200       0.070369
     8940.545400       0.072248
     8948.545900       0.074147
     8956.560700       0.076066
     8964.589900       0.078006
     8972.633500       0.079965
     8980.691500       0.081945
     8988.764000       0.083945
     8996.851100       0.085965
     9004.952700       0.088007
     9013.068900       0.090068
     9021.199800       0.092150
     9029.345400       0.094253
     9037.505600       0.096376
     9045.680700       0.098521
     9053.870500       0.100686
     9062.075200       0.102872
     9070.294800       0.105080
     9078.529300       0.107309
     9086.778700       0.109559
     9095.043200       0.111830
     9103.322700       0.114123
     9111.617300       0.116438
     9119.927000       0.118774
     9128.251900       0.121132
     9136.592100       0.123512
     9144.947400       0.125914
     9153.318100       0.128338
     9161.704100       0.130784
     9170.105500       0.133252
     9178.522300       0.135743
     9186.954500       0.138256
     9195.402300       0.140792
     9203.865600       0.143350
     9212.344500       0.145931
     9220.839100       0.148534
     9229.349300       0.151161
     9237.875300       0.153810
     9246.417000       0.156482
     9254.974500       0.159178
     9263.547900       0.161896
     9272.137200       0.164638
     9280.742500       0.167403
     9289.363700       0.170191
     9298.000900       0.173002
     9306.654300       0.175837
     9315.323700       0.178695
     9324.009300       0.181576
     9332.711200       0.184481
     9341.429200       0.187409
     9350.163600       0.190361
     9358.914400       0.193336
     9367.681500       0.196335
     9376.465100       0.199357
     9385.265100       0.202403
     9394.081700       0.205472
     9402.914900       0.208564
     9411.764700       0.211680
     9420.631200       0.214820
     9429.514400       0.217982
     9438.414300       0.221169
     9447.331100       0.224378
     9456.264800       0.227611
     9465.215300       0.230867
     9474.182900       0.234146
     9483.167400       0.237448
     9492.169000       0.240773
     9501.187600       0.244121
     9510.223500       0.247492
     9519.276500       0.250885
     9528.346800       0.254301
     9537.434400       0.257740
     9546.539400       0.261201
     9555.661700       0.264685
     9564.801500       0.268190
     9573.958800       0.271718
     9583.133700       0.275268
     9592.326100       0.278840
     9601.536200       0.282433
     9610.764100       0.286047
     9620.009600       0.289684
     9629.273000       0.293341
     9638.554200       0.297019
     9647.853400       0.300718
     9657.170400       0.304438
     9666.505600       0.308178
     9675.858700       0.311939
     9685.230000       0.315719
     9694.619500       0.319519
     9704.027200       0.323339
     9713.453100       0.327179
     9722.897400       0.331038
     9732.360100       0.334915
     9741.841200       0.338811
     9751.340800       0.342726
     9760.859000       0.346659
     9770.395700       0.350610
     9779.951100       0.354579
     9789.525200       0.358565
     9799.118100       0.362569
     9808.729800       0.366589
     9818.360300       0.370626
     9828.009800       0.374679
     9837.678300       0.378748
     9847.365800       0.382833
     9857.072400       0.386934
     9866.798200       0.391049
     9876.543200       0.395180
     9886.307500       0.399325
     9896.091000       0.403484
     9905.894000       0.407657
     9915.716400       0.411843
     9925.558300       0.416043
     9935.419800       0.420255
     9945.300800       0.424481
     9955.201600       0.428717
     9965.122100       0.432967
     9975.062300       0.437227
     9985.022500       0.441498
     9995.002500       0.445780
    10005.002500       0.450073
    10015.022500       0.454375
    10025.062700       0.458687
    10035.122900       0.463008
    10045.203400       0.467338
    10055.304200       0.471676
    10065.425300       0.476022
    10075.566800       0.480376
    10085.728700       0.484737
    10095.911200       0.489105
    10106.114200       0.493479
    10116.337900       0.497859
    10126.582300       0.502245
    10136.847400       0.506635
    10147.133400       0.511031
    10157.440300       0.515431
    10167.768200       0.519835
    10178.117000       0.524242
    10188.487000       0.528652
    10198.878100       0.533065
    10209.290500       0.537480
    10219.724100       0.541896
    10230.179000       0.546314
    10240.655400       0.550733
    10251.153300       0.555152
    10261.672700       0.559571
    10272.213700       0.563989
    10282.776300       0.568407
    10293.360800       0.572823
    10303.967000       0.577238
    10314.595200       0.581649
    10325.245200       0.586059
    10335.917300       0.590465
    10346.611500       0.594867
    10357.327800       0.599266
    10368.066400       0.603659
    10378.827200       0.608048
    10389.610400       0.612432
    10400.416000       0.616809
    10411.244100       0.621180
    10422.094800       0.625544
    10432.968200       0.629901
    10443.864200       0.634250
    10454.783100       0.638591
    10465.724800       0.642923
    10476.689400       0.647246
    10487.677000       0.651560
    10498.687700       0.655863
    10509.721500       0.660156
    10520.778500       0.664439
    10531.858900       0.668709
    10542.962600       0.672968
    10554.089700       0.677215
    10565.240400       0.681449
    10576.414600       0.685670
    10587.612500       0.689877
    10598.834100       0.694070
    10610.079600       0.698249
    10621.348900       0.702412
    10632.642200       0.706560
    10643.959600       0.710693
    10655.301000       0.714809
    10666.666700       0.718909
    10678.056600       0.722991
    10689.470900       0.727056
    10700.909600       0.731103
    10712.372800       0.735132
    10723.860600       0.739142
    10735.373100       0.743132
    10746.910300       0.747103
    10758.472300       0.751054
    10770.059200       0.754985
    10781.671200       0.758894
    10793.308100       0.762782
    10804.970300       0.766649
    10816.657700       0.770494
    10828.370300       0.774316
    10840.108400       0.778115
    10851.871900       0.781892
    10863.661100       0.785644
    10875.475800       0.789373
    10887.316300       0.793077
    10899.182600       0.796756
    10911.074700       0.800411
    10922.992900       0.804040
    10934.937100       0.807643
    10946.907500       0.811220
    10958.904100       0.814771
    10970.927000       0.818294
    10982.976400       0.821791
    10995.052200       0.825260
    11007.154700       0.828701
    11019.283700       0.832114
    11031.439600       0.835498
    11043.622300       0.838854
    11055.832000       0.842180
    11068.068600       0.845477
    11080.332400       0.848745
    11092.623400       0.851982
    11104.941700       0.855188
    11117.287400       0.858365
    11129.660500       0.861510
    11142.061300       0.864624
    11154.489700       0.867707
    11166.945800       0.870758
    11179.429800       0.873777
    11191.941800       0.876763
    11204.481800       0.879718
    11217.049900       0.882639
    11229.646300       0.885528
    11242.270900       0.888383
    11254.924000       0.891205
    11267.605600       0.893993
    11280.315800       0.896747
    11293.054800       0.899467
    11305.822500       0.902153
    11318.619100       0.904805
    11331.444800       0.907422
    11344.299500       0.910004
    11357.183400       0.912551
    11370.096600       0.915062
    11383.039300       0.917539
    11396.011400       0.919980
    11409.013100       0.922385
    11422.044500       0.924754
    11435.105800       0.927087
    11448.196900       0.929384
    11461.318100       0.931645
    11474.469300       0.933870
    11487.650800       0.936058
    11500.862600       0.938209
    11514.104800       0.940324
    11527.377500       0.942402
    11540.680900       0.944443
    11554.015000       0.946447
    11567.380000       0.948414
    11580.775900       0.950343
    11594.202900       0.952236
    11607.661100       0.954091
    11621.150500       0.955909
    11634.671300       0.957690
    11648.223600       0.959433
    11661.807600       0.961139
    11675.423200       0.962807
    11689.070700       0.964438
    11702.750100       0.966032
    11716.461600       0.967588
    11730.205300       0.969106
    11743.981200       0.970587
    11757.789500       0.972031
    11771.630400       0.973437
    11785.503800       0.974805
    11799.410000       0.976137
    11813.349100       0.977431
    11827.321100       0.978687
    11841.326200       0.979906
    11855.364600       0.981089
    11869.436200       0.982234
    11883.541300       0.983342
    11897.680000       0.984412
    11911.852300       0.985447
    11926.058400       0.986444
    11940.298500       0.987404
    11954.572600       0.988328
    11968.880900       0.989216
    11983.223500       0.990067
    11997.600500       0.990882
    12012.012000       0.991661
    12026.458200       0.992404
    12040.939200       0.993111
    12055.455100       0.993782
    12070.006000       0.994418
    12084.592100       0.995018
    12099.213600       0.995583
    12113.870400       0.996114
    12128.562800       0.996609
    12143.290800       0.997070
    12158.054700       0.997496
    12172.854500       0.997888
    12187.690400       0.998246
    12202.562500       0.998570
    12217.471000       0.998860
    12232.415900       0.999117
    12247.397400       0.999341
    12262.415700       0.999532
    12277.470800       0.999690
    12292.563000       0.999815
    12307.692300       0.999909
    12322.858900       0.999970
    12338.062900       1.000000
    12353.304500       0.999998
    12368.583800       0.999965
    12383.900900       0.999902
    12399.256000       0.999807
    12414.649300       0.999682
    12430.080800       0.999528
    12445.550700       0.999343
    12461.059200       0.999129
    12476.606400       0.998886
    12492.192400       0.998614
    12507.817400       0.998314
    12523.481500       0.997985
    12539.185000       0.997629
    12554.927800       0.997245
    12570.710200       0.996834
    12586.532400       0.996395
    12602.394500       0.995931
    12618.296500       0.995440
    12634.238800       0.994924
    12650.221400       0.994382
    12666.244500       0.993815
    12682.308200       0.993223
    12698.412700       0.992607
    12714.558200       0.991967
    12730.744700       0.991303
    12746.972600       0.990616
    12763.241900       0.989906
    12779.552700       0.989174
    12795.905300       0.988419
    12812.299800       0.987643
    12828.736400       0.986846
    12845.215200       0.986028
    12861.736300       0.985189
    12878.300100       0.984330
    12894.906500       0.983452
    12911.555800       0.982554
    12928.248200       0.981638
    12944.983800       0.980702
    12961.762800       0.979750
    12978.585300       0.978779
    12995.451600       0.977791
    13012.361700       0.976787
    13029.316000       0.975766
    13046.314400       0.974729
    13063.357300       0.973677
    13080.444700       0.972610
    13097.576900       0.971529
    13114.754100       0.970433
    13131.976400       0.969324
    13149.243900       0.968201
    13166.556900       0.967065
    13183.915600       0.965917
    13201.320100       0.964758
    13218.770700       0.963587
    13236.267400       0.962404
    13253.810500       0.961211
    13271.400100       0.960008
    13289.036500       0.958796
    13306.719900       0.957574
    13324.450400       0.956343
    13342.228200       0.955104
    13360.053400       0.953858
    13377.926400       0.952603
    13395.847300       0.951342
    13413.816200       0.950074
    13431.833400       0.948801
    13449.899100       0.947521
    13468.013500       0.946237
    13486.176700       0.944947
    13504.388900       0.943654
    13522.650400       0.942357
    13540.961400       0.941056
    13559.322000       0.939752
    13577.732500       0.938446
    13596.193100       0.937138
    13614.703900       0.935828
    13633.265200       0.934518
    13651.877100       0.933206
    13670.540000       0.931894
    13689.253900       0.930583
    13708.019200       0.929272
    13726.836000       0.927962
    13745.704500       0.926653
    13764.624900       0.925347
    13783.597500       0.924042
    13802.622500       0.922741
    13821.700100       0.921443
    13840.830400       0.920148
    13860.013900       0.918858
    13879.250500       0.917571
    13898.540700       0.916290
    13917.884500       0.915014
    13937.282200       0.913744
    13956.734100       0.912479
    13976.240400       0.911222
    13995.801300       0.909971
    14015.417000       0.908727
    14035.087700       0.907491
    14054.813800       0.906263
    14074.595400       0.905043
    14094.432700       0.903832
    14114.326000       0.902631
    14134.275600       0.901439
    14154.281700       0.900256
    14174.344400       0.899084
    14194.464200       0.897923
    14214.641100       0.896773
    14234.875400       0.895634
    14255.167500       0.894506
    14275.517500       0.893391
    14295.925700       0.892288
    14316.392300       0.891197
    14336.917600       0.890120
    14357.501800       0.889056
    14378.145200       0.888005
    14398.848100       0.886968
    14419.610700       0.885946
    14440.433200       0.884938
    14461.316000       0.883944
    14482.259200       0.882966
    14503.263200       0.882003
    14524.328200       0.881056
    14545.454500       0.880125
    14566.642400       0.879209
    14587.892000       0.878310
    14609.203800       0.877428
    14630.577900       0.876562
    14652.014700       0.875714
    14673.514300       0.874883
    14695.077100       0.874069
    14716.703500       0.873273
    14738.393500       0.872495
    14760.147600       0.871736
    14781.966000       0.870994
    14803.849000       0.870271
    14825.796900       0.869566
    14847.809900       0.868881
    14869.888500       0.868214
    14892.032800       0.867566
    14914.243100       0.866938
    14936.519800       0.866329
    14958.863100       0.865740
    14981.273400       0.865170
    15003.750900       0.864620
    15026.296000       0.864090
    15048.909000       0.863580
    15071.590100       0.863089
    15094.339600       0.862619
    15117.158000       0.862169
    15140.045400       0.861740
    15163.002300       0.861330
    15186.028900       0.860941
    15209.125500       0.860572
    15232.292500       0.860223
    15255.530100       0.859895
    15278.838800       0.859588
    15302.218800       0.859300
    15325.670500       0.859033
    15349.194200       0.858786
    15372.790200       0.858560
    15396.458800       0.858354
    15420.200500       0.858168
    15444.015400       0.858002
    15467.904100       0.857856
    15491.866800       0.857731
    15515.903800       0.857625
    15540.015500       0.857539
    15564.202300       0.857473
    15588.464500       0.857426
    15612.802500       0.857399
    15637.216600       0.857391
    15661.707100       0.857402
    15686.274500       0.857432
    15710.919100       0.857481
    15735.641200       0.857549
    15760.441300       0.857635
    15785.319700       0.857740
    15810.276700       0.857863
    15835.312700       0.858003
    15860.428200       0.858161
    15885.623500       0.858337
    15910.899000       0.858529
    15936.255000       0.858739
    15961.691900       0.858965
    15987.210200       0.859207
    16012.810200       0.859466
    16038.492400       0.859740
    16064.257000       0.860030
    16090.104600       0.860335
    16116.035500       0.860654
    16142.050000       0.860988
    16168.148700       0.861337
    16194.332000       0.861698
    16220.600200       0.862074
    16246.953700       0.862462
    16273.393000       0.862863
    16299.918500       0.863276
    16326.530600       0.863701
    16353.229800       0.864137
    16380.016400       0.864585
    16406.890900       0.865042
    16433.853700       0.865510
    16460.905300       0.865988
    16488.046200       0.866474
    16515.276600       0.866969
    16542.597200       0.867473
    16570.008300       0.867984
    16597.510400       0.868502
    16625.103900       0.869027
    16652.789300       0.869557
    16680.567100       0.870094
    16708.437800       0.870635
    16736.401700       0.871181
    16764.459300       0.871731
    16792.611300       0.872284
    16820.857900       0.872839
    16849.199700       0.873397
    16877.637100       0.873957
    16906.170800       0.874517
    16934.801000       0.875077
    16963.528400       0.875638
    16992.353400       0.876197
    17021.276600       0.876754
    17050.298400       0.877309
    17079.419300       0.877862
    17108.639900       0.878410
    17137.960600       0.878955
    17167.382000       0.879494
    17196.904600       0.880027
    17226.528900       0.880555
    17256.255400       0.881075
    17286.084700       0.881587
    17316.017300       0.882090
    17346.053800       0.882584
    17376.194600       0.883068
    17406.440400       0.883541
    17436.791600       0.884003
    17467.248900       0.884452
    17497.812800       0.884888
    17528.483800       0.885310
    17559.262500       0.885718
    17590.149500       0.886110
    17621.145400       0.886485
    17652.250700       0.886844
    17683.466000       0.887184
    17714.791900       0.887506
    17746.228900       0.887808
    17777.777800       0.888090
    17809.439000       0.888350
    17841.213200       0.888589
    17873.101000       0.888804
    17905.103000       0.888996
    17937.219700       0.889163
    17969.451900       0.889304
    18001.800200       0.889419
    18034.265100       0.889507
    18066.847300       0.889567
    18099.547500       0.889598
    18132.366300       0.889599
    18165.304300       0.889569
    18198.362100       0.889507
    18231.540600       0.889413
    18264.840200       0.889286
    18298.261700       0.889124
    18331.805700       0.888927
    18365.472900       0.888694
    18399.264000       0.888424
    18433.179700       0.888116
    18467.220700       0.887769
    18501.387600       0.887383
    18535.681200       0.886956
    18570.102100       0.886487
    18604.651200       0.885976
    18639.329000       0.885422
    18674.136300       0.884824
    18709.073900       0.884181
    18744.142500       0.883491
    18779.342700       0.882755
    18814.675400       0.881971
    18850.141400       0.881138
    18885.741300       0.880256
    18921.475900       0.879323
    18957.346000       0.878339
    18993.352300       0.877303
    19029.495700       0.876214
    19065.776900       0.875070
    19102.196800       0.873872
    19138.756000       0.872619
    19175.455400       0.871309
    19212.295900       0.869941
    19249.278200       0.868515
    19286.403100       0.867030
    19323.671500       0.865486
    19361.084200       0.863880
    19398.642100       0.862213
    19436.346000       0.860484
    19474.196700       0.858692
    19512.195100       0.856836
    19550.342100       0.854915
    19588.638600       0.852928
    19627.085400       0.850876
    19665.683400       0.848756
    19704.433500       0.846568
    19743.336600       0.844313
    19782.393700       0.841988
    19821.605600       0.839593
    19860.973200       0.837127
    19900.497500       0.834590
    19940.179500       0.831982
    19980.020000       0.829301
    20020.020000       0.826546
    20060.180500       0.823718
    20100.502500       0.820815
    20140.986900       0.817837
    20181.634700       0.814784
    20222.446900       0.811654
    20263.424500       0.808448
    20304.568500       0.805164
    20345.880000       0.801803
    20387.359800       0.798363
    20429.009200       0.794845
    20470.829100       0.791248
    20512.820500       0.787570
    20554.984600       0.783813
    20597.322300       0.779976
    20639.834900       0.776058
    20682.523300       0.772058
    20725.388600       0.767978
    20768.432000       0.763815
    20811.654500       0.759571
    20855.057400       0.755244
    20898.641600       0.750835
    20942.408400       0.746344
    20986.358900       0.741769
    21030.494200       0.737112
    21074.815600       0.732371
    21119.324200       0.727548
    21164.021200       0.722641
    21208.907700       0.717651
    21253.985100       0.712578
    21299.254500       0.707421
    21344.717200       0.702182
    21390.374300       0.696859
    21436.227200       0.691454
    21482.277100       0.685966
    21528.525300       0.680395
    21574.973000       0.674743
    21621.621600       0.669008
    21668.472400       0.663191
    21715.526600       0.657294
    21762.785600       0.651315
    21810.250800       0.645256
    21857.923500       0.639117
    21905.805000       0.632898
    21953.896800       0.626600
    22002.200200       0.620224
    22050.716600       0.613770
    22099.447500       0.607239
    22148.394200       0.600631
    22197.558300       0.593948
    22246.941000       0.587190
    22296.544000       0.580359
    22346.368700       0.573454
    22396.416600       0.566477
    22446.689100       0.559428
    22497.187900       0.552310
    22547.914300       0.545123
    22598.870100       0.537867
    22650.056600       0.530546
    22701.475600       0.523158
    22753.128600       0.515707
    22805.017100       0.508193
    22857.142900       0.500617
    22909.507400       0.492982
    22962.112500       0.485289
    23014.959700       0.477538
    23068.050700       0.469733
    23121.387300       0.461874
    23174.971000       0.453963
    23228.803700       0.446003
    23282.887100       0.437995
    23337.222900       0.429941
    23391.812900       0.421842
    23446.658900       0.413702
    23501.762600       0.405523
    23557.126000       0.397305
    23612.750900       0.389053
    23668.639100       0.380767
    23724.792400       0.372451
    23781.212800       0.364107
    23837.902300       0.355738
    23894.862600       0.347346
    23952.095800       0.338934
    24009.603800       0.330504
    24067.388700       0.322060
    24125.452400       0.313605
    24183.796900       0.305141
    24242.424200       0.296672
    24301.336600       0.288201
    24360.535900       0.279730
    24420.024400       0.271265
    24479.804200       0.262807
    24539.877300       0.254360
    24600.246000       0.245928
    24660.912500       0.237515
    24721.878900       0.229124
    24783.147500       0.220759
    24844.720500       0.212425
    24906.600200       0.204125
    24968.789000       0.195863
    25031.289100       0.187644
    25094.102900       0.179471
    25157.232700       0.171350
    25220.681000       0.163285
    25284.450100       0.155280
    25348.542500       0.147340
    25412.960600       0.139471
    25477.707000       0.131676
