22,   22, MVIRI VIS channel from srf_MET4_1992078_1992079_1801-Release_S10EL_10.dat
Number of data points:
752
Wavenumber (cm-1)   Filter response
     8745.080900       0.000000
     8752.735200       0.000000
     8760.403000       0.000001
     8768.084200       0.000059
     8775.778900       0.000200
     8783.487000       0.000421
     8791.208800       0.000720
     8798.944100       0.001094
     8806.693100       0.001543
     8814.455700       0.002062
     8822.232000       0.002650
     8830.022100       0.003305
     8837.825900       0.004026
     8845.643500       0.004809
     8853.475000       0.005653
     8861.320300       0.006557
     8869.179600       0.007518
     8877.052800       0.008534
     8884.940000       0.009605
     8892.841300       0.010728
     8900.756600       0.011902
     8908.686000       0.013126
     8916.629500       0.014397
     8924.587200       0.015714
     8932.559200       0.017077
     8940.545400       0.018484
     8948.545900       0.019932
     8956.560700       0.021423
     8964.589900       0.022953
     8972.633500       0.024522
     8980.691500       0.026129
     8988.764000       0.027772
     8996.851100       0.029451
     9004.952700       0.031165
     9013.068900       0.032913
     9021.199800       0.034693
     9029.345400       0.036506
     9037.505600       0.038349
     9045.680700       0.040223
     9053.870500       0.042126
     9062.075200       0.044058
     9070.294800       0.046018
     9078.529300       0.048005
     9086.778700       0.050019
     9095.043200       0.052059
     9103.322700       0.054124
     9111.617300       0.056215
     9119.927000       0.058329
     9128.251900       0.060468
     9136.592100       0.062630
     9144.947400       0.064814
     9153.318100       0.067022
     9161.704100       0.069250
     9170.105500       0.071501
     9178.522300       0.073773
     9186.954500       0.076065
     9195.402300       0.078378
     9203.865600       0.080711
     9212.344500       0.083064
     9220.839100       0.085437
     9229.349300       0.087829
     9237.875300       0.090239
     9246.417000       0.092669
     9254.974500       0.095117
     9263.547900       0.097584
     9272.137200       0.100068
     9280.742500       0.102571
     9289.363700       0.105091
     9298.000900       0.107629
     9306.654300       0.110185
     9315.323700       0.112758
     9324.009300       0.115348
     9332.711200       0.117955
     9341.429200       0.120580
     9350.163600       0.123221
     9358.914400       0.125879
     9367.681500       0.128554
     9376.465100       0.131246
     9385.265100       0.133955
     9394.081700       0.136680
     9402.914900       0.139422
     9411.764700       0.142180
     9420.631200       0.144955
     9429.514400       0.147747
     9438.414300       0.150555
     9447.331100       0.153379
     9456.264800       0.156220
     9465.215300       0.159078
     9474.182900       0.161952
     9483.167400       0.164842
     9492.169000       0.167749
     9501.187600       0.170673
     9510.223500       0.173613
     9519.276500       0.176569
     9528.346800       0.179542
     9537.434400       0.182532
     9546.539400       0.185539
     9555.661700       0.188562
     9564.801500       0.191601
     9573.958800       0.194658
     9583.133700       0.197731
     9592.326100       0.200820
     9601.536200       0.203927
     9610.764100       0.207050
     9620.009600       0.210190
     9629.273000       0.213347
     9638.554200       0.216521
     9647.853400       0.219711
     9657.170400       0.222919
     9666.505600       0.226143
     9675.858700       0.229385
     9685.230000       0.232643
     9694.619500       0.235918
     9704.027200       0.239210
     9713.453100       0.242519
     9722.897400       0.245845
     9732.360100       0.249187
     9741.841200       0.252547
     9751.340800       0.255924
     9760.859000       0.259317
     9770.395700       0.262728
     9779.951100       0.266155
     9789.525200       0.269600
     9799.118100       0.273061
     9808.729800       0.276538
     9818.360300       0.280033
     9828.009800       0.283544
     9837.678300       0.287072
     9847.365800       0.290617
     9857.072400       0.294178
     9866.798200       0.297756
     9876.543200       0.301350
     9886.307500       0.304961
     9896.091000       0.308588
     9905.894000       0.312231
     9915.716400       0.315890
     9925.558300       0.319565
     9935.419800       0.323257
     9945.300800       0.326964
     9955.201600       0.330687
     9965.122100       0.334426
     9975.062300       0.338180
     9985.022500       0.341949
     9995.002500       0.345735
    10005.002500       0.349535
    10015.022500       0.353350
    10025.062700       0.357180
    10035.122900       0.361025
    10045.203400       0.364884
    10055.304200       0.368758
    10065.425300       0.372646
    10075.566800       0.376549
    10085.728700       0.380465
    10095.911200       0.384395
    10106.114200       0.388339
    10116.337900       0.392296
    10126.582300       0.396266
    10136.847400       0.400249
    10147.133400       0.404245
    10157.440300       0.408254
    10167.768200       0.412275
    10178.117000       0.416308
    10188.487000       0.420352
    10198.878100       0.424409
    10209.290500       0.428477
    10219.724100       0.432556
    10230.179000       0.436647
    10240.655400       0.440748
    10251.153300       0.444859
    10261.672700       0.448980
    10272.213700       0.453112
    10282.776300       0.457252
    10293.360800       0.461403
    10303.967000       0.465562
    10314.595200       0.469730
    10325.245200       0.473907
    10335.917300       0.478092
    10346.611500       0.482284
    10357.327800       0.486484
    10368.066400       0.490691
    10378.827200       0.494906
    10389.610400       0.499127
    10400.416000       0.503354
    10411.244100       0.507587
    10422.094800       0.511825
    10432.968200       0.516069
    10443.864200       0.520318
    10454.783100       0.524571
    10465.724800       0.528829
    10476.689400       0.533090
    10487.677000       0.537355
    10498.687700       0.541624
    10509.721500       0.545894
    10520.778500       0.550168
    10531.858900       0.554443
    10542.962600       0.558720
    10554.089700       0.562998
    10565.240400       0.567277
    10576.414600       0.571557
    10587.612500       0.575837
    10598.834100       0.580117
    10610.079600       0.584395
    10621.348900       0.588673
    10632.642200       0.592950
    10643.959600       0.597224
    10655.301000       0.601497
    10666.666700       0.605766
    10678.056600       0.610033
    10689.470900       0.614296
    10700.909600       0.618555
    10712.372800       0.622810
    10723.860600       0.627060
    10735.373100       0.631305
    10746.910300       0.635545
    10758.472300       0.639778
    10770.059200       0.644005
    10781.671200       0.648226
    10793.308100       0.652439
    10804.970300       0.656644
    10816.657700       0.660842
    10828.370300       0.665030
    10840.108400       0.669210
    10851.871900       0.673380
    10863.661100       0.677541
    10875.475800       0.681692
    10887.316300       0.685831
    10899.182600       0.689960
    10911.074700       0.694077
    10922.992900       0.698183
    10934.937100       0.702275
    10946.907500       0.706355
    10958.904100       0.710422
    10970.927000       0.714476
    10982.976400       0.718515
    10995.052200       0.722539
    11007.154700       0.726549
    11019.283700       0.730543
    11031.439600       0.734521
    11043.622300       0.738484
    11055.832000       0.742429
    11068.068600       0.746358
    11080.332400       0.750269
    11092.623400       0.754162
    11104.941700       0.758037
    11117.287400       0.761893
    11129.660500       0.765730
    11142.061300       0.769547
    11154.489700       0.773345
    11166.945800       0.777122
    11179.429800       0.780878
    11191.941800       0.784613
    11204.481800       0.788327
    11217.049900       0.792018
    11229.646300       0.795687
    11242.270900       0.799334
    11254.924000       0.802957
    11267.605600       0.806557
    11280.315800       0.810133
    11293.054800       0.813684
    11305.822500       0.817211
    11318.619100       0.820712
    11331.444800       0.824189
    11344.299500       0.827639
    11357.183400       0.831063
    11370.096600       0.834461
    11383.039300       0.837832
    11396.011400       0.841175
    11409.013100       0.844491
    11422.044500       0.847779
    11435.105800       0.851039
    11448.196900       0.854269
    11461.318100       0.857471
    11474.469300       0.860644
    11487.650800       0.863787
    11500.862600       0.866900
    11514.104800       0.869983
    11527.377500       0.873035
    11540.680900       0.876056
    11554.015000       0.879046
    11567.380000       0.882005
    11580.775900       0.884931
    11594.202900       0.887826
    11607.661100       0.890688
    11621.150500       0.893518
    11634.671300       0.896314
    11648.223600       0.899077
    11661.807600       0.901807
    11675.423200       0.904503
    11689.070700       0.907165
    11702.750100       0.909793
    11716.461600       0.912386
    11730.205300       0.914944
    11743.981200       0.917468
    11757.789500       0.919956
    11771.630400       0.922409
    11785.503800       0.924826
    11799.410000       0.927207
    11813.349100       0.929553
    11827.321100       0.931862
    11841.326200       0.934134
    11855.364600       0.936370
    11869.436200       0.938569
    11883.541300       0.940730
    11897.680000       0.942855
    11911.852300       0.944942
    11926.058400       0.946992
    11940.298500       0.949004
    11954.572600       0.950978
    11968.880900       0.952914
    11983.223500       0.954812
    11997.600500       0.956672
    12012.012000       0.958493
    12026.458200       0.960276
    12040.939200       0.962021
    12055.455100       0.963726
    12070.006000       0.965393
    12084.592100       0.967021
    12099.213600       0.968610
    12113.870400       0.970159
    12128.562800       0.971670
    12143.290800       0.973142
    12158.054700       0.974574
    12172.854500       0.975967
    12187.690400       0.977320
    12202.562500       0.978634
    12217.471000       0.979909
    12232.415900       0.981144
    12247.397400       0.982340
    12262.415700       0.983496
    12277.470800       0.984612
    12292.563000       0.985689
    12307.692300       0.986727
    12322.858900       0.987725
    12338.062900       0.988684
    12353.304500       0.989603
    12368.583800       0.990482
    12383.900900       0.991323
    12399.256000       0.992123
    12414.649300       0.992885
    12430.080800       0.993607
    12445.550700       0.994291
    12461.059200       0.994935
    12476.606400       0.995540
    12492.192400       0.996106
    12507.817400       0.996633
    12523.481500       0.997121
    12539.185000       0.997571
    12554.927800       0.997982
    12570.710200       0.998355
    12586.532400       0.998689
    12602.394500       0.998985
    12618.296500       0.999243
    12634.238800       0.999463
    12650.221400       0.999645
    12666.244500       0.999790
    12682.308200       0.999897
    12698.412700       0.999967
    12714.558200       1.000000
    12730.744700       0.999996
    12746.972600       0.999955
    12763.241900       0.999877
    12779.552700       0.999763
    12795.905300       0.999613
    12812.299800       0.999427
    12828.736400       0.999205
    12845.215200       0.998947
    12861.736300       0.998654
    12878.300100       0.998326
    12894.906500       0.997963
    12911.555800       0.997566
    12928.248200       0.997134
    12944.983800       0.996667
    12961.762800       0.996167
    12978.585300       0.995634
    12995.451600       0.995067
    13012.361700       0.994467
    13029.316000       0.993834
    13046.314400       0.993168
    13063.357300       0.992471
    13080.444700       0.991741
    13097.576900       0.990980
    13114.754100       0.990187
    13131.976400       0.989364
    13149.243900       0.988509
    13166.556900       0.987625
    13183.915600       0.986710
    13201.320100       0.985765
    13218.770700       0.984791
    13236.267400       0.983788
    13253.810500       0.982756
    13271.400100       0.981696
    13289.036500       0.980608
    13306.719900       0.979492
    13324.450400       0.978348
    13342.228200       0.977178
    13360.053400       0.975981
    13377.926400       0.974758
    13395.847300       0.973509
    13413.816200       0.972234
    13431.833400       0.970934
    13449.899100       0.969610
    13468.013500       0.968261
    13486.176700       0.966889
    13504.388900       0.965492
    13522.650400       0.964073
    13540.961400       0.962631
    13559.322000       0.961166
    13577.732500       0.959680
    13596.193100       0.958172
    13614.703900       0.956642
    13633.265200       0.955093
    13651.877100       0.953522
    13670.540000       0.951932
    13689.253900       0.950323
    13708.019200       0.948694
    13726.836000       0.947047
    13745.704500       0.945382
    13764.624900       0.943699
    13783.597500       0.941998
    13802.622500       0.940281
    13821.700100       0.938547
    13840.830400       0.936797
    13860.013900       0.935032
    13879.250500       0.933252
    13898.540700       0.931457
    13917.884500       0.929647
    13937.282200       0.927824
    13956.734100       0.925988
    13976.240400       0.924138
    13995.801300       0.922276
    14015.417000       0.920403
    14035.087700       0.918517
    14054.813800       0.916621
    14074.595400       0.914714
    14094.432700       0.912796
    14114.326000       0.910869
    14134.275600       0.908933
    14154.281700       0.906988
    14174.344400       0.905034
    14194.464200       0.903073
    14214.641100       0.901103
    14234.875400       0.899127
    14255.167500       0.897145
    14275.517500       0.895156
    14295.925700       0.893161
    14316.392300       0.891161
    14336.917600       0.889157
    14357.501800       0.887148
    14378.145200       0.885135
    14398.848100       0.883119
    14419.610700       0.881099
    14440.433200       0.879077
    14461.316000       0.877053
    14482.259200       0.875027
    14503.263200       0.873000
    14524.328200       0.870972
    14545.454500       0.868944
    14566.642400       0.866916
    14587.892000       0.864888
    14609.203800       0.862860
    14630.577900       0.860835
    14652.014700       0.858811
    14673.514300       0.856789
    14695.077100       0.854769
    14716.703500       0.852753
    14738.393500       0.850740
    14760.147600       0.848731
    14781.966000       0.846725
    14803.849000       0.844725
    14825.796900       0.842729
    14847.809900       0.840739
    14869.888500       0.838754
    14892.032800       0.836776
    14914.243100       0.834804
    14936.519800       0.832839
    14958.863100       0.830881
    14981.273400       0.828931
    15003.750900       0.826989
    15026.296000       0.825055
    15048.909000       0.823130
    15071.590100       0.821214
    15094.339600       0.819307
    15117.158000       0.817410
    15140.045400       0.815523
    15163.002300       0.813647
    15186.028900       0.811781
    15209.125500       0.809926
    15232.292500       0.808083
    15255.530100       0.806251
    15278.838800       0.804432
    15302.218800       0.802624
    15325.670500       0.800829
    15349.194200       0.799047
    15372.790200       0.797279
    15396.458800       0.795523
    15420.200500       0.793781
    15444.015400       0.792054
    15467.904100       0.790340
    15491.866800       0.788641
    15515.903800       0.786956
    15540.015500       0.785287
    15564.202300       0.783633
    15588.464500       0.781994
    15612.802500       0.780370
    15637.216600       0.778763
    15661.707100       0.777171
    15686.274500       0.775596
    15710.919100       0.774037
    15735.641200       0.772495
    15760.441300       0.770970
    15785.319700       0.769461
    15810.276700       0.767970
    15835.312700       0.766496
    15860.428200       0.765039
    15885.623500       0.763600
    15910.899000       0.762178
    15936.255000       0.760774
    15961.691900       0.759388
    15987.210200       0.758020
    16012.810200       0.756671
    16038.492400       0.755339
    16064.257000       0.754026
    16090.104600       0.752731
    16116.035500       0.751454
    16142.050000       0.750196
    16168.148700       0.748957
    16194.332000       0.747736
    16220.600200       0.746533
    16246.953700       0.745349
    16273.393000       0.744184
    16299.918500       0.743038
    16326.530600       0.741910
    16353.229800       0.740801
    16380.016400       0.739710
    16406.890900       0.738638
    16433.853700       0.737584
    16460.905300       0.736549
    16488.046200       0.735532
    16515.276600       0.734534
    16542.597200       0.733554
    16570.008300       0.732592
    16597.510400       0.731648
    16625.103900       0.730722
    16652.789300       0.729815
    16680.567100       0.728924
    16708.437800       0.728052
    16736.401700       0.727197
    16764.459300       0.726359
    16792.611300       0.725539
    16820.857900       0.724736
    16849.199700       0.723949
    16877.637100       0.723179
    16906.170800       0.722426
    16934.801000       0.721688
    16963.528400       0.720967
    16992.353400       0.720262
    17021.276600       0.719572
    17050.298400       0.718898
    17079.419300       0.718239
    17108.639900       0.717594
    17137.960600       0.716964
    17167.382000       0.716348
    17196.904600       0.715747
    17226.528900       0.715159
    17256.255400       0.714584
    17286.084700       0.714023
    17316.017300       0.713474
    17346.053800       0.712938
    17376.194600       0.712413
    17406.440400       0.711901
    17436.791600       0.711399
    17467.248900       0.710909
    17497.812800       0.710429
    17528.483800       0.709959
    17559.262500       0.709500
    17590.149500       0.709049
    17621.145400       0.708608
    17652.250700       0.708175
    17683.466000       0.707750
    17714.791900       0.707332
    17746.228900       0.706922
    17777.777800       0.706519
    17809.439000       0.706122
    17841.213200       0.705731
    17873.101000       0.705344
    17905.103000       0.704963
    17937.219700       0.704586
    17969.451900       0.704213
    18001.800200       0.703843
    18034.265100       0.703476
    18066.847300       0.703111
    18099.547500       0.702747
    18132.366300       0.702385
    18165.304300       0.702023
    18198.362100       0.701661
    18231.540600       0.701298
    18264.840200       0.700934
    18298.261700       0.700569
    18331.805700       0.700201
    18365.472900       0.699830
    18399.264000       0.699455
    18433.179700       0.699076
    18467.220700       0.698693
    18501.387600       0.698303
    18535.681200       0.697908
    18570.102100       0.697506
    18604.651200       0.697096
    18639.329000       0.696678
    18674.136300       0.696252
    18709.073900       0.695816
    18744.142500       0.695370
    18779.342700       0.694913
    18814.675400       0.694445
    18850.141400       0.693964
    18885.741300       0.693471
    18921.475900       0.692964
    18957.346000       0.692443
    18993.352300       0.691907
    19029.495700       0.691356
    19065.776900       0.690788
    19102.196800       0.690202
    19138.756000       0.689599
    19175.455400       0.688978
    19212.295900       0.688337
    19249.278200       0.687676
    19286.403100       0.686994
    19323.671500       0.686291
    19361.084200       0.685566
    19398.642100       0.684817
    19436.346000       0.684045
    19474.196700       0.683249
    19512.195100       0.682427
    19550.342100       0.681579
    19588.638600       0.680705
    19627.085400       0.679803
    19665.683400       0.678872
    19704.433500       0.677913
    19743.336600       0.676924
    19782.393700       0.675905
    19821.605600       0.674855
    19860.973200       0.673772
    19900.497500       0.672657
    19940.179500       0.671509
    19980.020000       0.670326
    20020.020000       0.669108
    20060.180500       0.667855
    20100.502500       0.666565
    20140.986900       0.665238
    20181.634700       0.663873
    20222.446900       0.662470
    20263.424500       0.661027
    20304.568500       0.659544
    20345.880000       0.658021
    20387.359800       0.656456
    20429.009200       0.654849
    20470.829100       0.653199
    20512.820500       0.651506
    20554.984600       0.649769
    20597.322300       0.647986
    20639.834900       0.646158
    20682.523300       0.644284
    20725.388600       0.642363
    20768.432000       0.640395
    20811.654500       0.638378
    20855.057400       0.636313
    20898.641600       0.634198
    20942.408400       0.632033
    20986.358900       0.629818
    21030.494200       0.627551
    21074.815600       0.625233
    21119.324200       0.622863
    21164.021200       0.620439
    21208.907700       0.617963
    21253.985100       0.615432
    21299.254500       0.612847
    21344.717200       0.610207
    21390.374300       0.607512
    21436.227200       0.604761
    21482.277100       0.601954
    21528.525300       0.599090
    21574.973000       0.596168
    21621.621600       0.593190
    21668.472400       0.590153
    21715.526600       0.587058
    21762.785600       0.583904
    21810.250800       0.580691
    21857.923500       0.577419
    21905.805000       0.574088
    21953.896800       0.570696
    22002.200200       0.567245
    22050.716600       0.563733
    22099.447500       0.560161
    22148.394200       0.556528
    22197.558300       0.552834
    22246.941000       0.549079
    22296.544000       0.545263
    22346.368700       0.541386
    22396.416600       0.537447
    22446.689100       0.533447
    22497.187900       0.529386
    22547.914300       0.525264
    22598.870100       0.521081
    22650.056600       0.516836
    22701.475600       0.512530
    22753.128600       0.508163
    22805.017100       0.503736
    22857.142900       0.499248
    22909.507400       0.494700
    22962.112500       0.490091
    23014.959700       0.485423
    23068.050700       0.480696
    23121.387300       0.475909
    23174.971000       0.471064
    23228.803700       0.466161
    23282.887100       0.461199
    23337.222900       0.456181
    23391.812900       0.451106
    23446.658900       0.445974
    23501.762600       0.440788
    23557.126000       0.435546
    23612.750900       0.430250
    23668.639100       0.424901
    23724.792400       0.419499
    23781.212800       0.414046
    23837.902300       0.408541
    23894.862600       0.402987
    23952.095800       0.397383
    24009.603800       0.391732
    24067.388700       0.386034
    24125.452400       0.380289
    24183.796900       0.374501
    24242.424200       0.368668
    24301.336600       0.362794
    24360.535900       0.356879
    24420.024400       0.350924
    24479.804200       0.344931
    24539.877300       0.338901
    24600.246000       0.332836
    24660.912500       0.326738
    24721.878900       0.320608
    24783.147500       0.314447
    24844.720500       0.308258
    24906.600200       0.302042
    24968.789000       0.295802
    25031.289100       0.289538
    25094.102900       0.283254
    25157.232700       0.276951
    25220.681000       0.270631
    25284.450100       0.264297
    25348.542500       0.257950
    25412.960600       0.251593
    25477.707000       0.245229
