71,   71, MVIRI VIS channel from srf_MET2_1990348_1990349_1801-Release_S10EL_10.dat
Number of data points:
730
Wavenumber (cm-1)   Filter response
     8916.629500       0.000000
     8924.587200       0.000000
     8932.559200       0.000002
     8940.545400       0.000012
     8948.545900       0.000033
     8956.560700       0.000070
     8964.589900       0.000128
     8972.633500       0.000211
     8980.691500       0.000323
     8988.764000       0.000468
     8996.851100       0.000649
     9004.952700       0.000871
     9013.068900       0.001136
     9021.199800       0.001447
     9029.345400       0.001809
     9037.505600       0.002223
     9045.680700       0.002693
     9053.870500       0.003221
     9062.075200       0.003810
     9070.294800       0.004462
     9078.529300       0.005179
     9086.778700       0.005964
     9095.043200       0.006819
     9103.322700       0.007744
     9111.617300       0.008743
     9119.927000       0.009817
     9128.251900       0.010967
     9136.592100       0.012195
     9144.947400       0.013502
     9153.318100       0.014889
     9161.704100       0.016357
     9170.105500       0.017908
     9178.522300       0.019542
     9186.954500       0.021261
     9195.402300       0.023064
     9203.865600       0.024952
     9212.344500       0.026927
     9220.839100       0.028989
     9229.349300       0.031137
     9237.875300       0.033372
     9246.417000       0.035695
     9254.974500       0.038105
     9263.547900       0.040604
     9272.137200       0.043189
     9280.742500       0.045863
     9289.363700       0.048624
     9298.000900       0.051472
     9306.654300       0.054408
     9315.323700       0.057430
     9324.009300       0.060538
     9332.711200       0.063733
     9341.429200       0.067013
     9350.163600       0.070378
     9358.914400       0.073828
     9367.681500       0.077361
     9376.465100       0.080978
     9385.265100       0.084676
     9394.081700       0.088457
     9402.914900       0.092318
     9411.764700       0.096259
     9420.631200       0.100280
     9429.514400       0.104378
     9438.414300       0.108554
     9447.331100       0.112806
     9456.264800       0.117133
     9465.215300       0.121535
     9474.182900       0.126009
     9483.167400       0.130555
     9492.169000       0.135172
     9501.187600       0.139859
     9510.223500       0.144614
     9519.276500       0.149436
     9528.346800       0.154325
     9537.434400       0.159278
     9546.539400       0.164294
     9555.661700       0.169373
     9564.801500       0.174512
     9573.958800       0.179712
     9583.133700       0.184969
     9592.326100       0.190283
     9601.536200       0.195652
     9610.764100       0.201076
     9620.009600       0.206552
     9629.273000       0.212080
     9638.554200       0.217657
     9647.853400       0.223283
     9657.170400       0.228955
     9666.505600       0.234673
     9675.858700       0.240436
     9685.230000       0.246241
     9694.619500       0.252087
     9704.027200       0.257973
     9713.453100       0.263898
     9722.897400       0.269859
     9732.360100       0.275856
     9741.841200       0.281887
     9751.340800       0.287949
     9760.859000       0.294044
     9770.395700       0.300168
     9779.951100       0.306320
     9789.525200       0.312499
     9799.118100       0.318703
     9808.729800       0.324930
     9818.360300       0.331181
     9828.009800       0.337452
     9837.678300       0.343743
     9847.365800       0.350052
     9857.072400       0.356377
     9866.798200       0.362719
     9876.543200       0.369073
     9886.307500       0.375441
     9896.091000       0.381820
     9905.894000       0.388208
     9915.716400       0.394606
     9925.558300       0.401010
     9935.419800       0.407420
     9945.300800       0.413835
     9955.201600       0.420252
     9965.122100       0.426673
     9975.062300       0.433092
     9985.022500       0.439512
     9995.002500       0.445931
    10005.002500       0.452345
    10015.022500       0.458755
    10025.062700       0.465160
    10035.122900       0.471558
    10045.203400       0.477947
    10055.304200       0.484328
    10065.425300       0.490699
    10075.566800       0.497057
    10085.728700       0.503404
    10095.911200       0.509737
    10106.114200       0.516054
    10116.337900       0.522356
    10126.582300       0.528641
    10136.847400       0.534907
    10147.133400       0.541155
    10157.440300       0.547383
    10167.768200       0.553589
    10178.117000       0.559774
    10188.487000       0.565935
    10198.878100       0.572073
    10209.290500       0.578185
    10219.724100       0.584271
    10230.179000       0.590331
    10240.655400       0.596363
    10251.153300       0.602367
    10261.672700       0.608341
    10272.213700       0.614285
    10282.776300       0.620198
    10293.360800       0.626079
    10303.967000       0.631927
    10314.595200       0.637742
    10325.245200       0.643522
    10335.917300       0.649269
    10346.611500       0.654979
    10357.327800       0.660652
    10368.066400       0.666289
    10378.827200       0.671888
    10389.610400       0.677449
    10400.416000       0.682971
    10411.244100       0.688453
    10422.094800       0.693895
    10432.968200       0.699296
    10443.864200       0.704656
    10454.783100       0.709974
    10465.724800       0.715249
    10476.689400       0.720482
    10487.677000       0.725671
    10498.687700       0.730816
    10509.721500       0.735917
    10520.778500       0.740973
    10531.858900       0.745983
    10542.962600       0.750948
    10554.089700       0.755866
    10565.240400       0.760738
    10576.414600       0.765563
    10587.612500       0.770341
    10598.834100       0.775072
    10610.079600       0.779754
    10621.348900       0.784388
    10632.642200       0.788973
    10643.959600       0.793509
    10655.301000       0.797997
    10666.666700       0.802434
    10678.056600       0.806823
    10689.470900       0.811161
    10700.909600       0.815449
    10712.372800       0.819687
    10723.860600       0.823874
    10735.373100       0.828011
    10746.910300       0.832097
    10758.472300       0.836132
    10770.059200       0.840115
    10781.671200       0.844048
    10793.308100       0.847929
    10804.970300       0.851759
    10816.657700       0.855537
    10828.370300       0.859263
    10840.108400       0.862938
    10851.871900       0.866560
    10863.661100       0.870132
    10875.475800       0.873651
    10887.316300       0.877118
    10899.182600       0.880534
    10911.074700       0.883898
    10922.992900       0.887210
    10934.937100       0.890470
    10946.907500       0.893678
    10958.904100       0.896835
    10970.927000       0.899940
    10982.976400       0.902993
    10995.052200       0.905995
    11007.154700       0.908945
    11019.283700       0.911844
    11031.439600       0.914692
    11043.622300       0.917488
    11055.832000       0.920234
    11068.068600       0.922928
    11080.332400       0.925572
    11092.623400       0.928165
    11104.941700       0.930708
    11117.287400       0.933200
    11129.660500       0.935642
    11142.061300       0.938035
    11154.489700       0.940377
    11166.945800       0.942670
    11179.429800       0.944913
    11191.941800       0.947107
    11204.481800       0.949253
    11217.049900       0.951349
    11229.646300       0.953397
    11242.270900       0.955396
    11254.924000       0.957347
    11267.605600       0.959251
    11280.315800       0.961107
    11293.054800       0.962915
    11305.822500       0.964676
    11318.619100       0.966391
    11331.444800       0.968058
    11344.299500       0.969680
    11357.183400       0.971255
    11370.096600       0.972785
    11383.039300       0.974269
    11396.011400       0.975707
    11409.013100       0.977101
    11422.044500       0.978450
    11435.105800       0.979755
    11448.196900       0.981016
    11461.318100       0.982233
    11474.469300       0.983407
    11487.650800       0.984537
    11500.862600       0.985625
    11514.104800       0.986670
    11527.377500       0.987672
    11540.680900       0.988633
    11554.015000       0.989553
    11567.380000       0.990431
    11580.775900       0.991268
    11594.202900       0.992064
    11607.661100       0.992821
    11621.150500       0.993537
    11634.671300       0.994214
    11648.223600       0.994851
    11661.807600       0.995450
    11675.423200       0.996010
    11689.070700       0.996531
    11702.750100       0.997015
    11716.461600       0.997461
    11730.205300       0.997869
    11743.981200       0.998241
    11757.789500       0.998576
    11771.630400       0.998875
    11785.503800       0.999138
    11799.410000       0.999365
    11813.349100       0.999557
    11827.321100       0.999714
    11841.326200       0.999837
    11855.364600       0.999925
    11869.436200       0.999979
    11883.541300       1.000000
    11897.680000       0.999987
    11911.852300       0.999942
    11926.058400       0.999864
    11940.298500       0.999753
    11954.572600       0.999611
    11968.880900       0.999437
    11983.223500       0.999232
    11997.600500       0.998995
    12012.012000       0.998728
    12026.458200       0.998431
    12040.939200       0.998104
    12055.455100       0.997747
    12070.006000       0.997360
    12084.592100       0.996945
    12099.213600       0.996501
    12113.870400       0.996028
    12128.562800       0.995528
    12143.290800       0.994999
    12158.054700       0.994443
    12172.854500       0.993860
    12187.690400       0.993249
    12202.562500       0.992613
    12217.471000       0.991949
    12232.415900       0.991260
    12247.397400       0.990545
    12262.415700       0.989805
    12277.470800       0.989039
    12292.563000       0.988249
    12307.692300       0.987433
    12322.858900       0.986594
    12338.062900       0.985730
    12353.304500       0.984843
    12368.583800       0.983932
    12383.900900       0.982998
    12399.256000       0.982041
    12414.649300       0.981061
    12430.080800       0.980059
    12445.550700       0.979035
    12461.059200       0.977988
    12476.606400       0.976920
    12492.192400       0.975830
    12507.817400       0.974719
    12523.481500       0.973588
    12539.185000       0.972435
    12554.927800       0.971262
    12570.710200       0.970068
    12586.532400       0.968855
    12602.394500       0.967622
    12618.296500       0.966369
    12634.238800       0.965096
    12650.221400       0.963805
    12666.244500       0.962494
    12682.308200       0.961165
    12698.412700       0.959818
    12714.558200       0.958451
    12730.744700       0.957067
    12746.972600       0.955665
    12763.241900       0.954245
    12779.552700       0.952808
    12795.905300       0.951353
    12812.299800       0.949881
    12828.736400       0.948392
    12845.215200       0.946886
    12861.736300       0.945364
    12878.300100       0.943825
    12894.906500       0.942270
    12911.555800       0.940698
    12928.248200       0.939111
    12944.983800       0.937508
    12961.762800       0.935889
    12978.585300       0.934255
    12995.451600       0.932606
    13012.361700       0.930941
    13029.316000       0.929262
    13046.314400       0.927567
    13063.357300       0.925858
    13080.444700       0.924134
    13097.576900       0.922396
    13114.754100       0.920643
    13131.976400       0.918877
    13149.243900       0.917096
    13166.556900       0.915301
    13183.915600       0.913493
    13201.320100       0.911671
    13218.770700       0.909835
    13236.267400       0.907986
    13253.810500       0.906124
    13271.400100       0.904249
    13289.036500       0.902360
    13306.719900       0.900459
    13324.450400       0.898545
    13342.228200       0.896617
    13360.053400       0.894678
    13377.926400       0.892726
    13395.847300       0.890761
    13413.816200       0.888784
    13431.833400       0.886795
    13449.899100       0.884794
    13468.013500       0.882781
    13486.176700       0.880756
    13504.388900       0.878719
    13522.650400       0.876670
    13540.961400       0.874610
    13559.322000       0.872538
    13577.732500       0.870455
    13596.193100       0.868360
    13614.703900       0.866254
    13633.265200       0.864137
    13651.877100       0.862008
    13670.540000       0.859869
    13689.253900       0.857718
    13708.019200       0.855557
    13726.836000       0.853385
    13745.704500       0.851202
    13764.624900       0.849008
    13783.597500       0.846804
    13802.622500       0.844589
    13821.700100       0.842364
    13840.830400       0.840128
    13860.013900       0.837883
    13879.250500       0.835626
    13898.540700       0.833360
    13917.884500       0.831084
    13937.282200       0.828797
    13956.734100       0.826501
    13976.240400       0.824195
    13995.801300       0.821879
    14015.417000       0.819553
    14035.087700       0.817217
    14054.813800       0.814872
    14074.595400       0.812518
    14094.432700       0.810154
    14114.326000       0.807780
    14134.275600       0.805397
    14154.281700       0.803005
    14174.344400       0.800604
    14194.464200       0.798193
    14214.641100       0.795773
    14234.875400       0.793345
    14255.167500       0.790907
    14275.517500       0.788461
    14295.925700       0.786006
    14316.392300       0.783542
    14336.917600       0.781069
    14357.501800       0.778588
    14378.145200       0.776098
    14398.848100       0.773600
    14419.610700       0.771094
    14440.433200       0.768579
    14461.316000       0.766056
    14482.259200       0.763525
    14503.263200       0.760985
    14524.328200       0.758438
    14545.454500       0.755883
    14566.642400       0.753320
    14587.892000       0.750749
    14609.203800       0.748171
    14630.577900       0.745585
    14652.014700       0.742991
    14673.514300       0.740390
    14695.077100       0.737781
    14716.703500       0.735166
    14738.393500       0.732543
    14760.147600       0.729913
    14781.966000       0.727275
    14803.849000       0.724631
    14825.796900       0.721980
    14847.809900       0.719323
    14869.888500       0.716658
    14892.032800       0.713988
    14914.243100       0.711310
    14936.519800       0.708626
    14958.863100       0.705936
    14981.273400       0.703240
    15003.750900       0.700537
    15026.296000       0.697829
    15048.909000       0.695115
    15071.590100       0.692394
    15094.339600       0.689669
    15117.158000       0.686937
    15140.045400       0.684200
    15163.002300       0.681458
    15186.028900       0.678710
    15209.125500       0.675958
    15232.292500       0.673200
    15255.530100       0.670437
    15278.838800       0.667669
    15302.218800       0.664897
    15325.670500       0.662120
    15349.194200       0.659338
    15372.790200       0.656553
    15396.458800       0.653763
    15420.200500       0.650969
    15444.015400       0.648170
    15467.904100       0.645368
    15491.866800       0.642562
    15515.903800       0.639753
    15540.015500       0.636940
    15564.202300       0.634123
    15588.464500       0.631304
    15612.802500       0.628481
    15637.216600       0.625655
    15661.707100       0.622827
    15686.274500       0.619995
    15710.919100       0.617162
    15735.641200       0.614325
    15760.441300       0.611487
    15785.319700       0.608645
    15810.276700       0.605803
    15835.312700       0.602958
    15860.428200       0.600111
    15885.623500       0.597263
    15910.899000       0.594413
    15936.255000       0.591562
    15961.691900       0.588710
    15987.210200       0.585857
    16012.810200       0.583002
    16038.492400       0.580147
    16064.257000       0.577292
    16090.104600       0.574436
    16116.035500       0.571579
    16142.050000       0.568722
    16168.148700       0.565866
    16194.332000       0.563009
    16220.600200       0.560153
    16246.953700       0.557297
    16273.393000       0.554442
    16299.918500       0.551587
    16326.530600       0.548734
    16353.229800       0.545881
    16380.016400       0.543029
    16406.890900       0.540179
    16433.853700       0.537330
    16460.905300       0.534483
    16488.046200       0.531638
    16515.276600       0.528794
    16542.597200       0.525953
    16570.008300       0.523114
    16597.510400       0.520277
    16625.103900       0.517443
    16652.789300       0.514611
    16680.567100       0.511782
    16708.437800       0.508956
    16736.401700       0.506134
    16764.459300       0.503314
    16792.611300       0.500498
    16820.857900       0.497685
    16849.199700       0.494876
    16877.637100       0.492071
    16906.170800       0.489270
    16934.801000       0.486473
    16963.528400       0.483680
    16992.353400       0.480892
    17021.276600       0.478108
    17050.298400       0.475329
    17079.419300       0.472555
    17108.639900       0.469785
    17137.960600       0.467021
    17167.382000       0.464262
    17196.904600       0.461508
    17226.528900       0.458760
    17256.255400       0.456017
    17286.084700       0.453280
    17316.017300       0.450548
    17346.053800       0.447823
    17376.194600       0.445104
    17406.440400       0.442391
    17436.791600       0.439684
    17467.248900       0.436984
    17497.812800       0.434290
    17528.483800       0.431603
    17559.262500       0.428923
    17590.149500       0.426249
    17621.145400       0.423583
    17652.250700       0.420923
    17683.466000       0.418271
    17714.791900       0.415626
    17746.228900       0.412988
    17777.777800       0.410357
    17809.439000       0.407735
    17841.213200       0.405120
    17873.101000       0.402512
    17905.103000       0.399912
    17937.219700       0.397320
    17969.451900       0.394736
    18001.800200       0.392160
    18034.265100       0.389592
    18066.847300       0.387032
    18099.547500       0.384481
    18132.366300       0.381937
    18165.304300       0.379402
    18198.362100       0.376875
    18231.540600       0.374356
    18264.840200       0.371846
    18298.261700       0.369345
    18331.805700       0.366851
    18365.472900       0.364367
    18399.264000       0.361891
    18433.179700       0.359423
    18467.220700       0.356964
    18501.387600       0.354514
    18535.681200       0.352073
    18570.102100       0.349640
    18604.651200       0.347215
    18639.329000       0.344800
    18674.136300       0.342393
    18709.073900       0.339994
    18744.142500       0.337605
    18779.342700       0.335224
    18814.675400       0.332851
    18850.141400       0.330487
    18885.741300       0.328132
    18921.475900       0.325785
    18957.346000       0.323447
    18993.352300       0.321118
    19029.495700       0.318796
    19065.776900       0.316483
    19102.196800       0.314179
    19138.756000       0.311883
    19175.455400       0.309595
    19212.295900       0.307315
    19249.278200       0.305043
    19286.403100       0.302779
    19323.671500       0.300524
    19361.084200       0.298276
    19398.642100       0.296036
    19436.346000       0.293804
    19474.196700       0.291579
    19512.195100       0.289362
    19550.342100       0.287153
    19588.638600       0.284951
    19627.085400       0.282756
    19665.683400       0.280568
    19704.433500       0.278387
    19743.336600       0.276213
    19782.393700       0.274046
    19821.605600       0.271886
    19860.973200       0.269732
    19900.497500       0.267585
    19940.179500       0.265444
    19980.020000       0.263309
    20020.020000       0.261180
    20060.180500       0.259057
    20100.502500       0.256940
    20140.986900       0.254828
    20181.634700       0.252722
    20222.446900       0.250621
    20263.424500       0.248525
    20304.568500       0.246434
    20345.880000       0.244348
    20387.359800       0.242266
    20429.009200       0.240189
    20470.829100       0.238117
    20512.820500       0.236048
    20554.984600       0.233983
    20597.322300       0.231922
    20639.834900       0.229865
    20682.523300       0.227811
    20725.388600       0.225760
    20768.432000       0.223713
    20811.654500       0.221668
    20855.057400       0.219626
    20898.641600       0.217586
    20942.408400       0.215548
    20986.358900       0.213513
    21030.494200       0.211479
    21074.815600       0.209447
    21119.324200       0.207417
    21164.021200       0.205388
    21208.907700       0.203360
    21253.985100       0.201333
    21299.254500       0.199307
    21344.717200       0.197281
    21390.374300       0.195255
    21436.227200       0.193230
    21482.277100       0.191204
    21528.525300       0.189179
    21574.973000       0.187152
    21621.621600       0.185126
    21668.472400       0.183098
    21715.526600       0.181069
    21762.785600       0.179040
    21810.250800       0.177008
    21857.923500       0.174976
    21905.805000       0.172941
    21953.896800       0.170905
    22002.200200       0.168866
    22050.716600       0.166825
    22099.447500       0.164782
    22148.394200       0.162736
    22197.558300       0.160688
    22246.941000       0.158636
    22296.544000       0.156582
    22346.368700       0.154524
    22396.416600       0.152463
    22446.689100       0.150399
    22497.187900       0.148331
    22547.914300       0.146259
    22598.870100       0.144184
    22650.056600       0.142104
    22701.475600       0.140021
    22753.128600       0.137933
    22805.017100       0.135842
    22857.142900       0.133746
    22909.507400       0.131645
    22962.112500       0.129540
    23014.959700       0.127431
    23068.050700       0.125317
    23121.387300       0.123199
    23174.971000       0.121076
    23228.803700       0.118948
    23282.887100       0.116816
    23337.222900       0.114679
    23391.812900       0.112537
    23446.658900       0.110391
    23501.762600       0.108241
    23557.126000       0.106085
    23612.750900       0.103926
    23668.639100       0.101762
    23724.792400       0.099594
    23781.212800       0.097421
    23837.902300       0.095245
    23894.862600       0.093064
    23952.095800       0.090880
    24009.603800       0.088692
    24067.388700       0.086501
    24125.452400       0.084306
    24183.796900       0.082108
    24242.424200       0.079907
    24301.336600       0.077704
    24360.535900       0.075498
    24420.024400       0.073290
    24479.804200       0.071080
    24539.877300       0.068869
    24600.246000       0.066656
    24660.912500       0.064443
    24721.878900       0.062229
    24783.147500       0.060015
    24844.720500       0.057801
    24906.600200       0.055588
    24968.789000       0.053376
    25031.289100       0.051165
    25094.102900       0.048957
    25157.232700       0.046751
    25220.681000       0.044548
    25284.450100       0.042349
    25348.542500       0.040154
    25412.960600       0.037964
    25477.707000       0.035779
