34,   34, MVIRI VIS channel from srf_MET4_1993258_1993259_1801-Release_S10EL_10.dat
Number of data points:
752
Wavenumber (cm-1)   Filter response
     8745.080900       0.000000
     8752.735200       0.000000
     8760.403000       0.000001
     8768.084200       0.000060
     8775.778900       0.000202
     8783.487000       0.000425
     8791.208800       0.000727
     8798.944100       0.001106
     8806.693100       0.001558
     8814.455700       0.002083
     8822.232000       0.002677
     8830.022100       0.003339
     8837.825900       0.004067
     8845.643500       0.004858
     8853.475000       0.005710
     8861.320300       0.006623
     8869.179600       0.007593
     8877.052800       0.008620
     8884.940000       0.009701
     8892.841300       0.010835
     8900.756600       0.012021
     8908.686000       0.013256
     8916.629500       0.014540
     8924.587200       0.015870
     8932.559200       0.017246
     8940.545400       0.018666
     8948.545900       0.020128
     8956.560700       0.021632
     8964.589900       0.023177
     8972.633500       0.024761
     8980.691500       0.026382
     8988.764000       0.028041
     8996.851100       0.029736
     9004.952700       0.031466
     9013.068900       0.033229
     9021.199800       0.035026
     9029.345400       0.036855
     9037.505600       0.038715
     9045.680700       0.040606
     9053.870500       0.042526
     9062.075200       0.044475
     9070.294800       0.046452
     9078.529300       0.048457
     9086.778700       0.050489
     9095.043200       0.052547
     9103.322700       0.054630
     9111.617300       0.056738
     9119.927000       0.058871
     9128.251900       0.061028
     9136.592100       0.063209
     9144.947400       0.065411
     9153.318100       0.067637
     9161.704100       0.069885
     9170.105500       0.072154
     9178.522300       0.074445
     9186.954500       0.076756
     9195.402300       0.079088
     9203.865600       0.081440
     9212.344500       0.083812
     9220.839100       0.086204
     9229.349300       0.088615
     9237.875300       0.091045
     9246.417000       0.093494
     9254.974500       0.095961
     9263.547900       0.098447
     9272.137200       0.100951
     9280.742500       0.103473
     9289.363700       0.106013
     9298.000900       0.108570
     9306.654300       0.111146
     9315.323700       0.113738
     9324.009300       0.116348
     9332.711200       0.118975
     9341.429200       0.121618
     9350.163600       0.124280
     9358.914400       0.126957
     9367.681500       0.129652
     9376.465100       0.132363
     9385.265100       0.135091
     9394.081700       0.137836
     9402.914900       0.140597
     9411.764700       0.143375
     9420.631200       0.146170
     9429.514400       0.148981
     9438.414300       0.151808
     9447.331100       0.154652
     9456.264800       0.157513
     9465.215300       0.160390
     9474.182900       0.163283
     9483.167400       0.166193
     9492.169000       0.169119
     9501.187600       0.172062
     9510.223500       0.175021
     9519.276500       0.177997
     9528.346800       0.180990
     9537.434400       0.183999
     9546.539400       0.187024
     9555.661700       0.190066
     9564.801500       0.193125
     9573.958800       0.196201
     9583.133700       0.199293
     9592.326100       0.202401
     9601.536200       0.205527
     9610.764100       0.208669
     9620.009600       0.211828
     9629.273000       0.215004
     9638.554200       0.218196
     9647.853400       0.221406
     9657.170400       0.224632
     9666.505600       0.227875
     9675.858700       0.231135
     9685.230000       0.234411
     9694.619500       0.237705
     9704.027200       0.241015
     9713.453100       0.244343
     9722.897400       0.247687
     9732.360100       0.251048
     9741.841200       0.254426
     9751.340800       0.257820
     9760.859000       0.261232
     9770.395700       0.264661
     9779.951100       0.268106
     9789.525200       0.271568
     9799.118100       0.275047
     9808.729800       0.278542
     9818.360300       0.282055
     9828.009800       0.285583
     9837.678300       0.289129
     9847.365800       0.292691
     9857.072400       0.296269
     9866.798200       0.299864
     9876.543200       0.303475
     9886.307500       0.307103
     9896.091000       0.310747
     9905.894000       0.314407
     9915.716400       0.318083
     9925.558300       0.321775
     9935.419800       0.325483
     9945.300800       0.329206
     9955.201600       0.332945
     9965.122100       0.336700
     9975.062300       0.340470
     9985.022500       0.344256
     9995.002500       0.348057
    10005.002500       0.351873
    10015.022500       0.355704
    10025.062700       0.359549
    10035.122900       0.363409
    10045.203400       0.367284
    10055.304200       0.371173
    10065.425300       0.375076
    10075.566800       0.378993
    10085.728700       0.382924
    10095.911200       0.386869
    10106.114200       0.390827
    10116.337900       0.394798
    10126.582300       0.398782
    10136.847400       0.402779
    10147.133400       0.406789
    10157.440300       0.410811
    10167.768200       0.414846
    10178.117000       0.418892
    10188.487000       0.422950
    10198.878100       0.427019
    10209.290500       0.431100
    10219.724100       0.435192
    10230.179000       0.439294
    10240.655400       0.443408
    10251.153300       0.447531
    10261.672700       0.451664
    10272.213700       0.455807
    10282.776300       0.459959
    10293.360800       0.464121
    10303.967000       0.468291
    10314.595200       0.472470
    10325.245200       0.476657
    10335.917300       0.480852
    10346.611500       0.485055
    10357.327800       0.489265
    10368.066400       0.493482
    10378.827200       0.497706
    10389.610400       0.501936
    10400.416000       0.506172
    10411.244100       0.510414
    10422.094800       0.514661
    10432.968200       0.518914
    10443.864200       0.523171
    10454.783100       0.527432
    10465.724800       0.531697
    10476.689400       0.535966
    10487.677000       0.540238
    10498.687700       0.544513
    10509.721500       0.548791
    10520.778500       0.553071
    10531.858900       0.557352
    10542.962600       0.561635
    10554.089700       0.565919
    10565.240400       0.570203
    10576.414600       0.574488
    10587.612500       0.578773
    10598.834100       0.583057
    10610.079600       0.587340
    10621.348900       0.591622
    10632.642200       0.595902
    10643.959600       0.600180
    10655.301000       0.604456
    10666.666700       0.608728
    10678.056600       0.612997
    10689.470900       0.617263
    10700.909600       0.621524
    10712.372800       0.625780
    10723.860600       0.630032
    10735.373100       0.634278
    10746.910300       0.638519
    10758.472300       0.642753
    10770.059200       0.646980
    10781.671200       0.651200
    10793.308100       0.655413
    10804.970300       0.659617
    10816.657700       0.663814
    10828.370300       0.668001
    10840.108400       0.672179
    10851.871900       0.676347
    10863.661100       0.680506
    10875.475800       0.684654
    10887.316300       0.688791
    10899.182600       0.692916
    10911.074700       0.697030
    10922.992900       0.701131
    10934.937100       0.705219
    10946.907500       0.709295
    10958.904100       0.713357
    10970.927000       0.717405
    10982.976400       0.721438
    10995.052200       0.725457
    11007.154700       0.729460
    11019.283700       0.733448
    11031.439600       0.737420
    11043.622300       0.741375
    11055.832000       0.745313
    11068.068600       0.749233
    11080.332400       0.753136
    11092.623400       0.757021
    11104.941700       0.760887
    11117.287400       0.764734
    11129.660500       0.768561
    11142.061300       0.772369
    11154.489700       0.776156
    11166.945800       0.779922
    11179.429800       0.783668
    11191.941800       0.787392
    11204.481800       0.791094
    11217.049900       0.794773
    11229.646300       0.798430
    11242.270900       0.802064
    11254.924000       0.805674
    11267.605600       0.809261
    11280.315800       0.812823
    11293.054800       0.816360
    11305.822500       0.819873
    11318.619100       0.823360
    11331.444800       0.826821
    11344.299500       0.830256
    11357.183400       0.833665
    11370.096600       0.837047
    11383.039300       0.840401
    11396.011400       0.843728
    11409.013100       0.847027
    11422.044500       0.850298
    11435.105800       0.853540
    11448.196900       0.856753
    11461.318100       0.859937
    11474.469300       0.863091
    11487.650800       0.866216
    11500.862600       0.869310
    11514.104800       0.872373
    11527.377500       0.875405
    11540.680900       0.878407
    11554.015000       0.881376
    11567.380000       0.884314
    11580.775900       0.887220
    11594.202900       0.890093
    11607.661100       0.892934
    11621.150500       0.895742
    11634.671300       0.898516
    11648.223600       0.901257
    11661.807600       0.903964
    11675.423200       0.906637
    11689.070700       0.909276
    11702.750100       0.911880
    11716.461600       0.914449
    11730.205300       0.916984
    11743.981200       0.919483
    11757.789500       0.921946
    11771.630400       0.924374
    11785.503800       0.926766
    11799.410000       0.929122
    11813.349100       0.931442
    11827.321100       0.933724
    11841.326200       0.935971
    11855.364600       0.938180
    11869.436200       0.940352
    11883.541300       0.942487
    11897.680000       0.944584
    11911.852300       0.946644
    11926.058400       0.948666
    11940.298500       0.950650
    11954.572600       0.952596
    11968.880900       0.954504
    11983.223500       0.956373
    11997.600500       0.958204
    12012.012000       0.959997
    12026.458200       0.961750
    12040.939200       0.963465
    12055.455100       0.965141
    12070.006000       0.966778
    12084.592100       0.968376
    12099.213600       0.969934
    12113.870400       0.971454
    12128.562800       0.972934
    12143.290800       0.974374
    12158.054700       0.975776
    12172.854500       0.977137
    12187.690400       0.978459
    12202.562500       0.979742
    12217.471000       0.980985
    12232.415900       0.982188
    12247.397400       0.983352
    12262.415700       0.984476
    12277.470800       0.985560
    12292.563000       0.986605
    12307.692300       0.987610
    12322.858900       0.988575
    12338.062900       0.989501
    12353.304500       0.990387
    12368.583800       0.991233
    12383.900900       0.992040
    12399.256000       0.992808
    12414.649300       0.993536
    12430.080800       0.994225
    12445.550700       0.994874
    12461.059200       0.995484
    12476.606400       0.996055
    12492.192400       0.996587
    12507.817400       0.997080
    12523.481500       0.997535
    12539.185000       0.997950
    12554.927800       0.998327
    12570.710200       0.998665
    12586.532400       0.998965
    12602.394500       0.999226
    12618.296500       0.999450
    12634.238800       0.999635
    12650.221400       0.999783
    12666.244500       0.999893
    12682.308200       0.999965
    12698.412700       1.000000
    12714.558200       0.999998
    12730.744700       0.999959
    12746.972600       0.999883
    12763.241900       0.999770
    12779.552700       0.999621
    12795.905300       0.999436
    12812.299800       0.999214
    12828.736400       0.998957
    12845.215200       0.998664
    12861.736300       0.998336
    12878.300100       0.997973
    12894.906500       0.997575
    12911.555800       0.997142
    12928.248200       0.996675
    12944.983800       0.996174
    12961.762800       0.995639
    12978.585300       0.995070
    12995.451600       0.994468
    13012.361700       0.993833
    13029.316000       0.993165
    13046.314400       0.992465
    13063.357300       0.991732
    13080.444700       0.990968
    13097.576900       0.990172
    13114.754100       0.989344
    13131.976400       0.988486
    13149.243900       0.987597
    13166.556900       0.986678
    13183.915600       0.985728
    13201.320100       0.984749
    13218.770700       0.983741
    13236.267400       0.982703
    13253.810500       0.981637
    13271.400100       0.980542
    13289.036500       0.979420
    13306.719900       0.978270
    13324.450400       0.977092
    13342.228200       0.975888
    13360.053400       0.974657
    13377.926400       0.973400
    13395.847300       0.972118
    13413.816200       0.970810
    13431.833400       0.969476
    13449.899100       0.968119
    13468.013500       0.966737
    13486.176700       0.965331
    13504.388900       0.963901
    13522.650400       0.962449
    13540.961400       0.960974
    13559.322000       0.959476
    13577.732500       0.957957
    13596.193100       0.956417
    13614.703900       0.954855
    13633.265200       0.953273
    13651.877100       0.951671
    13670.540000       0.950048
    13689.253900       0.948407
    13708.019200       0.946746
    13726.836000       0.945068
    13745.704500       0.943371
    13764.624900       0.941656
    13783.597500       0.939924
    13802.622500       0.938176
    13821.700100       0.936411
    13840.830400       0.934630
    13860.013900       0.932834
    13879.250500       0.931023
    13898.540700       0.929198
    13917.884500       0.927358
    13937.282200       0.925504
    13956.734100       0.923638
    13976.240400       0.921758
    13995.801300       0.919867
    14015.417000       0.917963
    14035.087700       0.916048
    14054.813800       0.914122
    14074.595400       0.912186
    14094.432700       0.910239
    14114.326000       0.908283
    14134.275600       0.906318
    14154.281700       0.904344
    14174.344400       0.902362
    14194.464200       0.900372
    14214.641100       0.898374
    14234.875400       0.896370
    14255.167500       0.894359
    14275.517500       0.892342
    14295.925700       0.890320
    14316.392300       0.888293
    14336.917600       0.886260
    14357.501800       0.884224
    14378.145200       0.882184
    14398.848100       0.880140
    14419.610700       0.878094
    14440.433200       0.876045
    14461.316000       0.873994
    14482.259200       0.871942
    14503.263200       0.869888
    14524.328200       0.867834
    14545.454500       0.865779
    14566.642400       0.863725
    14587.892000       0.861671
    14609.203800       0.859618
    14630.577900       0.857566
    14652.014700       0.855517
    14673.514300       0.853469
    14695.077100       0.851424
    14716.703500       0.849383
    14738.393500       0.847344
    14760.147600       0.845310
    14781.966000       0.843280
    14803.849000       0.841254
    14825.796900       0.839234
    14847.809900       0.837219
    14869.888500       0.835210
    14892.032800       0.833207
    14914.243100       0.831211
    14936.519800       0.829221
    14958.863100       0.827239
    14981.273400       0.825265
    15003.750900       0.823299
    15026.296000       0.821341
    15048.909000       0.819392
    15071.590100       0.817452
    15094.339600       0.815522
    15117.158000       0.813601
    15140.045400       0.811691
    15163.002300       0.809791
    15186.028900       0.807902
    15209.125500       0.806023
    15232.292500       0.804157
    15255.530100       0.802302
    15278.838800       0.800459
    15302.218800       0.798628
    15325.670500       0.796810
    15349.194200       0.795005
    15372.790200       0.793214
    15396.458800       0.791435
    15420.200500       0.789670
    15444.015400       0.787920
    15467.904100       0.786183
    15491.866800       0.784461
    15515.903800       0.782754
    15540.015500       0.781062
    15564.202300       0.779385
    15588.464500       0.777723
    15612.802500       0.776077
    15637.216600       0.774447
    15661.707100       0.772833
    15686.274500       0.771235
    15710.919100       0.769653
    15735.641200       0.768088
    15760.441300       0.766540
    15785.319700       0.765009
    15810.276700       0.763495
    15835.312700       0.761998
    15860.428200       0.760518
    15885.623500       0.759056
    15910.899000       0.757612
    15936.255000       0.756185
    15961.691900       0.754776
    15987.210200       0.753386
    16012.810200       0.752013
    16038.492400       0.750659
    16064.257000       0.749322
    16090.104600       0.748004
    16116.035500       0.746705
    16142.050000       0.745424
    16168.148700       0.744161
    16194.332000       0.742917
    16220.600200       0.741691
    16246.953700       0.740484
    16273.393000       0.739295
    16299.918500       0.738126
    16326.530600       0.736974
    16353.229800       0.735841
    16380.016400       0.734727
    16406.890900       0.733631
    16433.853700       0.732554
    16460.905300       0.731495
    16488.046200       0.730455
    16515.276600       0.729432
    16542.597200       0.728428
    16570.008300       0.727442
    16597.510400       0.726474
    16625.103900       0.725524
    16652.789300       0.724592
    16680.567100       0.723678
    16708.437800       0.722781
    16736.401700       0.721901
    16764.459300       0.721039
    16792.611300       0.720194
    16820.857900       0.719365
    16849.199700       0.718554
    16877.637100       0.717759
    16906.170800       0.716981
    16934.801000       0.716218
    16963.528400       0.715472
    16992.353400       0.714741
    17021.276600       0.714026
    17050.298400       0.713326
    17079.419300       0.712641
    17108.639900       0.711971
    17137.960600       0.711315
    17167.382000       0.710673
    17196.904600       0.710046
    17226.528900       0.709432
    17256.255400       0.708831
    17286.084700       0.708243
    17316.017300       0.707668
    17346.053800       0.707105
    17376.194600       0.706554
    17406.440400       0.706015
    17436.791600       0.705487
    17467.248900       0.704970
    17497.812800       0.704463
    17528.483800       0.703967
    17559.262500       0.703480
    17590.149500       0.703002
    17621.145400       0.702534
    17652.250700       0.702074
    17683.466000       0.701621
    17714.791900       0.701177
    17746.228900       0.700739
    17777.777800       0.700309
    17809.439000       0.699884
    17841.213200       0.699465
    17873.101000       0.699052
    17905.103000       0.698643
    17937.219700       0.698238
    17969.451900       0.697837
    18001.800200       0.697439
    18034.265100       0.697044
    18066.847300       0.696652
    18099.547500       0.696260
    18132.366300       0.695870
    18165.304300       0.695480
    18198.362100       0.695091
    18231.540600       0.694700
    18264.840200       0.694309
    18298.261700       0.693915
    18331.805700       0.693520
    18365.472900       0.693121
    18399.264000       0.692719
    18433.179700       0.692312
    18467.220700       0.691901
    18501.387600       0.691484
    18535.681200       0.691061
    18570.102100       0.690632
    18604.651200       0.690195
    18639.329000       0.689750
    18674.136300       0.689296
    18709.073900       0.688833
    18744.142500       0.688361
    18779.342700       0.687877
    18814.675400       0.687382
    18850.141400       0.686875
    18885.741300       0.686356
    18921.475900       0.685822
    18957.346000       0.685275
    18993.352300       0.684713
    19029.495700       0.684136
    19065.776900       0.683542
    19102.196800       0.682932
    19138.756000       0.682304
    19175.455400       0.681657
    19212.295900       0.680992
    19249.278200       0.680306
    19286.403100       0.679601
    19323.671500       0.678874
    19361.084200       0.678125
    19398.642100       0.677353
    19436.346000       0.676558
    19474.196700       0.675738
    19512.195100       0.674894
    19550.342100       0.674024
    19588.638600       0.673128
    19627.085400       0.672205
    19665.683400       0.671254
    19704.433500       0.670274
    19743.336600       0.669265
    19782.393700       0.668226
    19821.605600       0.667156
    19860.973200       0.666054
    19900.497500       0.664921
    19940.179500       0.663754
    19980.020000       0.662554
    20020.020000       0.661319
    20060.180500       0.660049
    20100.502500       0.658743
    20140.986900       0.657400
    20181.634700       0.656021
    20222.446900       0.654603
    20263.424500       0.653146
    20304.568500       0.651650
    20345.880000       0.650114
    20387.359800       0.648537
    20429.009200       0.646919
    20470.829100       0.645258
    20512.820500       0.643554
    20554.984600       0.641807
    20597.322300       0.640016
    20639.834900       0.638180
    20682.523300       0.636299
    20725.388600       0.634371
    20768.432000       0.632396
    20811.654500       0.630375
    20855.057400       0.628305
    20898.641600       0.626186
    20942.408400       0.624019
    20986.358900       0.621802
    21030.494200       0.619534
    21074.815600       0.617216
    21119.324200       0.614846
    21164.021200       0.612424
    21208.907700       0.609949
    21253.985100       0.607422
    21299.254500       0.604841
    21344.717200       0.602206
    21390.374300       0.599517
    21436.227200       0.596773
    21482.277100       0.593974
    21528.525300       0.591119
    21574.973000       0.588208
    21621.621600       0.585240
    21668.472400       0.582215
    21715.526600       0.579133
    21762.785600       0.575994
    21810.250800       0.572796
    21857.923500       0.569541
    21905.805000       0.566227
    21953.896800       0.562854
    22002.200200       0.559422
    22050.716600       0.555931
    22099.447500       0.552381
    22148.394200       0.548771
    22197.558300       0.545102
    22246.941000       0.541372
    22296.544000       0.537583
    22346.368700       0.533734
    22396.416600       0.529824
    22446.689100       0.525855
    22497.187900       0.521826
    22547.914300       0.517736
    22598.870100       0.513587
    22650.056600       0.509378
    22701.475600       0.505109
    22753.128600       0.500780
    22805.017100       0.496392
    22857.142900       0.491945
    22909.507400       0.487438
    22962.112500       0.482873
    23014.959700       0.478250
    23068.050700       0.473568
    23121.387300       0.468829
    23174.971000       0.464032
    23228.803700       0.459179
    23282.887100       0.454269
    23337.222900       0.449303
    23391.812900       0.444281
    23446.658900       0.439205
    23501.762600       0.434075
    23557.126000       0.428891
    23612.750900       0.423655
    23668.639100       0.418366
    23724.792400       0.413026
    23781.212800       0.407636
    23837.902300       0.402196
    23894.862600       0.396707
    23952.095800       0.391171
    24009.603800       0.385588
    24067.388700       0.379960
    24125.452400       0.374287
    24183.796900       0.368570
    24242.424200       0.362811
    24301.336600       0.357012
    24360.535900       0.351173
    24420.024400       0.345295
    24479.804200       0.339380
    24539.877300       0.333430
    24600.246000       0.327447
    24660.912500       0.321430
    24721.878900       0.315383
    24783.147500       0.309307
    24844.720500       0.303203
    24906.600200       0.297074
    24968.789000       0.290921
    25031.289100       0.284746
    25094.102900       0.278551
    25157.232700       0.272338
    25220.681000       0.266109
    25284.450100       0.259867
    25348.542500       0.253613
    25412.960600       0.247350
    25477.707000       0.241080
