84,   84, MVIRI VIS channel from srf_MET5_2001258_2001259_1801-Release_S10EL_10.dat
Number of data points:
806
Wavenumber (cm-1)   Filter response
     8350.730700       0.000000
     8357.710000       0.000000
     8364.701000       0.000000
     8371.703600       0.000002
     8378.718100       0.000004
     8385.744200       0.000009
     8392.782200       0.000017
     8399.832000       0.000027
     8406.893700       0.000042
     8413.967200       0.000061
     8421.052600       0.000084
     8428.150000       0.000113
     8435.259400       0.000147
     8442.380800       0.000187
     8449.514200       0.000234
     8456.659600       0.000288
     8463.817200       0.000350
     8470.986900       0.000419
     8478.168700       0.000496
     8485.362700       0.000582
     8492.569000       0.000676
     8499.787500       0.000780
     8507.018300       0.000893
     8514.261400       0.001016
     8521.516800       0.001149
     8528.784600       0.001292
     8536.064900       0.001447
     8543.357500       0.001612
     8550.662700       0.001788
     8557.980300       0.001976
     8565.310500       0.002175
     8572.653200       0.002386
     8580.008600       0.002610
     8587.376600       0.002846
     8594.757200       0.003095
     8602.150500       0.003356
     8609.556600       0.003631
     8616.975400       0.003919
     8624.407100       0.004220
     8631.851500       0.004535
     8639.308900       0.004864
     8646.779100       0.005206
     8654.262200       0.005563
     8661.758300       0.005934
     8669.267400       0.006320
     8676.789600       0.006720
     8684.324800       0.007136
     8691.873100       0.007566
     8699.434500       0.008011
     8707.009100       0.008472
     8714.596900       0.008948
     8722.198000       0.009439
     8729.812300       0.009947
     8737.439900       0.010470
     8745.080900       0.011009
     8752.735200       0.011564
     8760.403000       0.012135
     8768.084200       0.012723
     8775.778900       0.013327
     8783.487000       0.013948
     8791.208800       0.014585
     8798.944100       0.015240
     8806.693100       0.015911
     8814.455700       0.016599
     8822.232000       0.017305
     8830.022100       0.018027
     8837.825900       0.018768
     8845.643500       0.019526
     8853.475000       0.020301
     8861.320300       0.021094
     8869.179600       0.021905
     8877.052800       0.022734
     8884.940000       0.023581
     8892.841300       0.024446
     8900.756600       0.025330
     8908.686000       0.026231
     8916.629500       0.027152
     8924.587200       0.028091
     8932.559200       0.029048
     8940.545400       0.030025
     8948.545900       0.031020
     8956.560700       0.032034
     8964.589900       0.033068
     8972.633500       0.034120
     8980.691500       0.035192
     8988.764000       0.036284
     8996.851100       0.037395
     9004.952700       0.038525
     9013.068900       0.039675
     9021.199800       0.040845
     9029.345400       0.042036
     9037.505600       0.043245
     9045.680700       0.044476
     9053.870500       0.045726
     9062.075200       0.046997
     9070.294800       0.048288
     9078.529300       0.049599
     9086.778700       0.050931
     9095.043200       0.052284
     9103.322700       0.053658
     9111.617300       0.055052
     9119.927000       0.056468
     9128.251900       0.057904
     9136.592100       0.059362
     9144.947400       0.060841
     9153.318100       0.062342
     9161.704100       0.063863
     9170.105500       0.065407
     9178.522300       0.066972
     9186.954500       0.068558
     9195.402300       0.070167
     9203.865600       0.071797
     9212.344500       0.073449
     9220.839100       0.075123
     9229.349300       0.076819
     9237.875300       0.078538
     9246.417000       0.080279
     9254.974500       0.082042
     9263.547900       0.083827
     9272.137200       0.085636
     9280.742500       0.087466
     9289.363700       0.089319
     9298.000900       0.091195
     9306.654300       0.093094
     9315.323700       0.095016
     9324.009300       0.096961
     9332.711200       0.098928
     9341.429200       0.100918
     9350.163600       0.102932
     9358.914400       0.104969
     9367.681500       0.107029
     9376.465100       0.109112
     9385.265100       0.111219
     9394.081700       0.113349
     9402.914900       0.115502
     9411.764700       0.117679
     9420.631200       0.119879
     9429.514400       0.122103
     9438.414300       0.124350
     9447.331100       0.126621
     9456.264800       0.128915
     9465.215300       0.131234
     9474.182900       0.133575
     9483.167400       0.135941
     9492.169000       0.138330
     9501.187600       0.140743
     9510.223500       0.143180
     9519.276500       0.145640
     9528.346800       0.148125
     9537.434400       0.150633
     9546.539400       0.153164
     9555.661700       0.155720
     9564.801500       0.158299
     9573.958800       0.160902
     9583.133700       0.163529
     9592.326100       0.166180
     9601.536200       0.168854
     9610.764100       0.171552
     9620.009600       0.174274
     9629.273000       0.177019
     9638.554200       0.179788
     9647.853400       0.182580
     9657.170400       0.185396
     9666.505600       0.188236
     9675.858700       0.191099
     9685.230000       0.193985
     9694.619500       0.196894
     9704.027200       0.199827
     9713.453100       0.202783
     9722.897400       0.205763
     9732.360100       0.208765
     9741.841200       0.211790
     9751.340800       0.214838
     9760.859000       0.217909
     9770.395700       0.221003
     9779.951100       0.224119
     9789.525200       0.227259
     9799.118100       0.230420
     9808.729800       0.233604
     9818.360300       0.236810
     9828.009800       0.240038
     9837.678300       0.243289
     9847.365800       0.246561
     9857.072400       0.249855
     9866.798200       0.253171
     9876.543200       0.256508
     9886.307500       0.259866
     9896.091000       0.263247
     9905.894000       0.266647
     9915.716400       0.270069
     9925.558300       0.273512
     9935.419800       0.276975
     9945.300800       0.280460
     9955.201600       0.283964
     9965.122100       0.287488
     9975.062300       0.291032
     9985.022500       0.294597
     9995.002500       0.298181
    10005.002500       0.301784
    10015.022500       0.305406
    10025.062700       0.309048
    10035.122900       0.312708
    10045.203400       0.316387
    10055.304200       0.320085
    10065.425300       0.323800
    10075.566800       0.327534
    10085.728700       0.331285
    10095.911200       0.335055
    10106.114200       0.338841
    10116.337900       0.342644
    10126.582300       0.346465
    10136.847400       0.350302
    10147.133400       0.354155
    10157.440300       0.358025
    10167.768200       0.361910
    10178.117000       0.365811
    10188.487000       0.369727
    10198.878100       0.373659
    10209.290500       0.377605
    10219.724100       0.381566
    10230.179000       0.385541
    10240.655400       0.389530
    10251.153300       0.393533
    10261.672700       0.397549
    10272.213700       0.401578
    10282.776300       0.405620
    10293.360800       0.409675
    10303.967000       0.413742
    10314.595200       0.417821
    10325.245200       0.421911
    10335.917300       0.426013
    10346.611500       0.430126
    10357.327800       0.434249
    10368.066400       0.438383
    10378.827200       0.442527
    10389.610400       0.446681
    10400.416000       0.450843
    10411.244100       0.455015
    10422.094800       0.459196
    10432.968200       0.463385
    10443.864200       0.467582
    10454.783100       0.471786
    10465.724800       0.475998
    10476.689400       0.480217
    10487.677000       0.484443
    10498.687700       0.488675
    10509.721500       0.492912
    10520.778500       0.497155
    10531.858900       0.501403
    10542.962600       0.505657
    10554.089700       0.509914
    10565.240400       0.514176
    10576.414600       0.518441
    10587.612500       0.522709
    10598.834100       0.526981
    10610.079600       0.531255
    10621.348900       0.535531
    10632.642200       0.539809
    10643.959600       0.544088
    10655.301000       0.548369
    10666.666700       0.552649
    10678.056600       0.556930
    10689.470900       0.561211
    10700.909600       0.565492
    10712.372800       0.569771
    10723.860600       0.574049
    10735.373100       0.578325
    10746.910300       0.582600
    10758.472300       0.586871
    10770.059200       0.591140
    10781.671200       0.595405
    10793.308100       0.599666
    10804.970300       0.603924
    10816.657700       0.608177
    10828.370300       0.612424
    10840.108400       0.616667
    10851.871900       0.620903
    10863.661100       0.625134
    10875.475800       0.629357
    10887.316300       0.633574
    10899.182600       0.637784
    10911.074700       0.641985
    10922.992900       0.646179
    10934.937100       0.650363
    10946.907500       0.654539
    10958.904100       0.658705
    10970.927000       0.662862
    10982.976400       0.667008
    10995.052200       0.671143
    11007.154700       0.675267
    11019.283700       0.679380
    11031.439600       0.683481
    11043.622300       0.687570
    11055.832000       0.691646
    11068.068600       0.695709
    11080.332400       0.699759
    11092.623400       0.703795
    11104.941700       0.707816
    11117.287400       0.711823
    11129.660500       0.715814
    11142.061300       0.719791
    11154.489700       0.723751
    11166.945800       0.727695
    11179.429800       0.731623
    11191.941800       0.735533
    11204.481800       0.739426
    11217.049900       0.743302
    11229.646300       0.747159
    11242.270900       0.750998
    11254.924000       0.754818
    11267.605600       0.758618
    11280.315800       0.762399
    11293.054800       0.766160
    11305.822500       0.769900
    11318.619100       0.773620
    11331.444800       0.777319
    11344.299500       0.780996
    11357.183400       0.784651
    11370.096600       0.788284
    11383.039300       0.791895
    11396.011400       0.795483
    11409.013100       0.799047
    11422.044500       0.802588
    11435.105800       0.806106
    11448.196900       0.809598
    11461.318100       0.813067
    11474.469300       0.816510
    11487.650800       0.819928
    11500.862600       0.823321
    11514.104800       0.826688
    11527.377500       0.830029
    11540.680900       0.833343
    11554.015000       0.836631
    11567.380000       0.839892
    11580.775900       0.843125
    11594.202900       0.846330
    11607.661100       0.849508
    11621.150500       0.852657
    11634.671300       0.855778
    11648.223600       0.858870
    11661.807600       0.861933
    11675.423200       0.864967
    11689.070700       0.867971
    11702.750100       0.870945
    11716.461600       0.873890
    11730.205300       0.876803
    11743.981200       0.879687
    11757.789500       0.882539
    11771.630400       0.885361
    11785.503800       0.888151
    11799.410000       0.890910
    11813.349100       0.893637
    11827.321100       0.896332
    11841.326200       0.898995
    11855.364600       0.901625
    11869.436200       0.904223
    11883.541300       0.906789
    11897.680000       0.909321
    11911.852300       0.911820
    11926.058400       0.914286
    11940.298500       0.916719
    11954.572600       0.919118
    11968.880900       0.921483
    11983.223500       0.923814
    11997.600500       0.926111
    12012.012000       0.928374
    12026.458200       0.930603
    12040.939200       0.932797
    12055.455100       0.934956
    12070.006000       0.937081
    12084.592100       0.939171
    12099.213600       0.941226
    12113.870400       0.943245
    12128.562800       0.945230
    12143.290800       0.947179
    12158.054700       0.949093
    12172.854500       0.950972
    12187.690400       0.952815
    12202.562500       0.954623
    12217.471000       0.956395
    12232.415900       0.958131
    12247.397400       0.959831
    12262.415700       0.961496
    12277.470800       0.963125
    12292.563000       0.964718
    12307.692300       0.966275
    12322.858900       0.967796
    12338.062900       0.969282
    12353.304500       0.970731
    12368.583800       0.972145
    12383.900900       0.973522
    12399.256000       0.974864
    12414.649300       0.976170
    12430.080800       0.977440
    12445.550700       0.978674
    12461.059200       0.979873
    12476.606400       0.981035
    12492.192400       0.982162
    12507.817400       0.983254
    12523.481500       0.984309
    12539.185000       0.985330
    12554.927800       0.986314
    12570.710200       0.987264
    12586.532400       0.988178
    12602.394500       0.989057
    12618.296500       0.989901
    12634.238800       0.990710
    12650.221400       0.991484
    12666.244500       0.992223
    12682.308200       0.992928
    12698.412700       0.993598
    12714.558200       0.994234
    12730.744700       0.994835
    12746.972600       0.995402
    12763.241900       0.995936
    12779.552700       0.996435
    12795.905300       0.996902
    12812.299800       0.997334
    12828.736400       0.997733
    12845.215200       0.998100
    12861.736300       0.998433
    12878.300100       0.998733
    12894.906500       0.999001
    12911.555800       0.999237
    12928.248200       0.999441
    12944.983800       0.999612
    12961.762800       0.999752
    12978.585300       0.999861
    12995.451600       0.999938
    13012.361700       0.999984
    13029.316000       1.000000
    13046.314400       0.999985
    13063.357300       0.999940
    13080.444700       0.999865
    13097.576900       0.999759
    13114.754100       0.999625
    13131.976400       0.999461
    13149.243900       0.999269
    13166.556900       0.999047
    13183.915600       0.998798
    13201.320100       0.998520
    13218.770700       0.998214
    13236.267400       0.997881
    13253.810500       0.997521
    13271.400100       0.997134
    13289.036500       0.996720
    13306.719900       0.996281
    13324.450400       0.995815
    13342.228200       0.995323
    13360.053400       0.994807
    13377.926400       0.994265
    13395.847300       0.993699
    13413.816200       0.993108
    13431.833400       0.992494
    13449.899100       0.991856
    13468.013500       0.991194
    13486.176700       0.990510
    13504.388900       0.989803
    13522.650400       0.989075
    13540.961400       0.988324
    13559.322000       0.987552
    13577.732500       0.986759
    13596.193100       0.985945
    13614.703900       0.985111
    13633.265200       0.984257
    13651.877100       0.983384
    13670.540000       0.982491
    13689.253900       0.981580
    13708.019200       0.980650
    13726.836000       0.979703
    13745.704500       0.978737
    13764.624900       0.977755
    13783.597500       0.976756
    13802.622500       0.975740
    13821.700100       0.974709
    13840.830400       0.973661
    13860.013900       0.972599
    13879.250500       0.971522
    13898.540700       0.970431
    13917.884500       0.969325
    13937.282200       0.968206
    13956.734100       0.967074
    13976.240400       0.965930
    13995.801300       0.964773
    14015.417000       0.963604
    14035.087700       0.962424
    14054.813800       0.961232
    14074.595400       0.960031
    14094.432700       0.958818
    14114.326000       0.957597
    14134.275600       0.956365
    14154.281700       0.955125
    14174.344400       0.953877
    14194.464200       0.952620
    14214.641100       0.951356
    14234.875400       0.950084
    14255.167500       0.948806
    14275.517500       0.947521
    14295.925700       0.946230
    14316.392300       0.944933
    14336.917600       0.943632
    14357.501800       0.942325
    14378.145200       0.941015
    14398.848100       0.939700
    14419.610700       0.938382
    14440.433200       0.937061
    14461.316000       0.935737
    14482.259200       0.934410
    14503.263200       0.933082
    14524.328200       0.931753
    14545.454500       0.930422
    14566.642400       0.929091
    14587.892000       0.927759
    14609.203800       0.926427
    14630.577900       0.925096
    14652.014700       0.923766
    14673.514300       0.922437
    14695.077100       0.921110
    14716.703500       0.919784
    14738.393500       0.918461
    14760.147600       0.917141
    14781.966000       0.915824
    14803.849000       0.914511
    14825.796900       0.913201
    14847.809900       0.911896
    14869.888500       0.910595
    14892.032800       0.909299
    14914.243100       0.908008
    14936.519800       0.906723
    14958.863100       0.905444
    14981.273400       0.904171
    15003.750900       0.902905
    15026.296000       0.901646
    15048.909000       0.900394
    15071.590100       0.899149
    15094.339600       0.897913
    15117.158000       0.896684
    15140.045400       0.895464
    15163.002300       0.894253
    15186.028900       0.893051
    15209.125500       0.891859
    15232.292500       0.890675
    15255.530100       0.889502
    15278.838800       0.888339
    15302.218800       0.887187
    15325.670500       0.886045
    15349.194200       0.884913
    15372.790200       0.883794
    15396.458800       0.882685
    15420.200500       0.881588
    15444.015400       0.880503
    15467.904100       0.879430
    15491.866800       0.878369
    15515.903800       0.877321
    15540.015500       0.876285
    15564.202300       0.875262
    15588.464500       0.874252
    15612.802500       0.873256
    15637.216600       0.872272
    15661.707100       0.871302
    15686.274500       0.870346
    15710.919100       0.869404
    15735.641200       0.868475
    15760.441300       0.867561
    15785.319700       0.866660
    15810.276700       0.865774
    15835.312700       0.864903
    15860.428200       0.864045
    15885.623500       0.863203
    15910.899000       0.862375
    15936.255000       0.861561
    15961.691900       0.860762
    15987.210200       0.859979
    16012.810200       0.859209
    16038.492400       0.858455
    16064.257000       0.857716
    16090.104600       0.856991
    16116.035500       0.856282
    16142.050000       0.855587
    16168.148700       0.854907
    16194.332000       0.854243
    16220.600200       0.853592
    16246.953700       0.852957
    16273.393000       0.852337
    16299.918500       0.851731
    16326.530600       0.851139
    16353.229800       0.850562
    16380.016400       0.850000
    16406.890900       0.849452
    16433.853700       0.848918
    16460.905300       0.848399
    16488.046200       0.847893
    16515.276600       0.847401
    16542.597200       0.846923
    16570.008300       0.846458
    16597.510400       0.846007
    16625.103900       0.845568
    16652.789300       0.845143
    16680.567100       0.844731
    16708.437800       0.844331
    16736.401700       0.843943
    16764.459300       0.843568
    16792.611300       0.843205
    16820.857900       0.842853
    16849.199700       0.842513
    16877.637100       0.842183
    16906.170800       0.841865
    16934.801000       0.841557
    16963.528400       0.841259
    16992.353400       0.840971
    17021.276600       0.840693
    17050.298400       0.840424
    17079.419300       0.840164
    17108.639900       0.839913
    17137.960600       0.839670
    17167.382000       0.839435
    17196.904600       0.839207
    17226.528900       0.838986
    17256.255400       0.838772
    17286.084700       0.838564
    17316.017300       0.838362
    17346.053800       0.838165
    17376.194600       0.837974
    17406.440400       0.837786
    17436.791600       0.837603
    17467.248900       0.837423
    17497.812800       0.837247
    17528.483800       0.837073
    17559.262500       0.836901
    17590.149500       0.836730
    17621.145400       0.836561
    17652.250700       0.836392
    17683.466000       0.836223
    17714.791900       0.836054
    17746.228900       0.835883
    17777.777800       0.835711
    17809.439000       0.835536
    17841.213200       0.835359
    17873.101000       0.835177
    17905.103000       0.834992
    17937.219700       0.834802
    17969.451900       0.834607
    18001.800200       0.834406
    18034.265100       0.834198
    18066.847300       0.833983
    18099.547500       0.833760
    18132.366300       0.833528
    18165.304300       0.833287
    18198.362100       0.833036
    18231.540600       0.832774
    18264.840200       0.832501
    18298.261700       0.832216
    18331.805700       0.831918
    18365.472900       0.831607
    18399.264000       0.831281
    18433.179700       0.830940
    18467.220700       0.830584
    18501.387600       0.830211
    18535.681200       0.829821
    18570.102100       0.829412
    18604.651200       0.828985
    18639.329000       0.828539
    18674.136300       0.828072
    18709.073900       0.827584
    18744.142500       0.827074
    18779.342700       0.826541
    18814.675400       0.825984
    18850.141400       0.825403
    18885.741300       0.824797
    18921.475900       0.824165
    18957.346000       0.823506
    18993.352300       0.822820
    19029.495700       0.822105
    19065.776900       0.821360
    19102.196800       0.820585
    19138.756000       0.819779
    19175.455400       0.818942
    19212.295900       0.818071
    19249.278200       0.817167
    19286.403100       0.816228
    19323.671500       0.815254
    19361.084200       0.814243
    19398.642100       0.813196
    19436.346000       0.812110
    19474.196700       0.810986
    19512.195100       0.809821
    19550.342100       0.808617
    19588.638600       0.807370
    19627.085400       0.806081
    19665.683400       0.804749
    19704.433500       0.803373
    19743.336600       0.801952
    19782.393700       0.800485
    19821.605600       0.798971
    19860.973200       0.797409
    19900.497500       0.795799
    19940.179500       0.794139
    19980.020000       0.792429
    20020.020000       0.790668
    20060.180500       0.788854
    20100.502500       0.786988
    20140.986900       0.785068
    20181.634700       0.783094
    20222.446900       0.781063
    20263.424500       0.778977
    20304.568500       0.776833
    20345.880000       0.774631
    20387.359800       0.772371
    20429.009200       0.770050
    20470.829100       0.767669
    20512.820500       0.765227
    20554.984600       0.762722
    20597.322300       0.760155
    20639.834900       0.757523
    20682.523300       0.754827
    20725.388600       0.752066
    20768.432000       0.749238
    20811.654500       0.746343
    20855.057400       0.743381
    20898.641600       0.740350
    20942.408400       0.737250
    20986.358900       0.734080
    21030.494200       0.730839
    21074.815600       0.727527
    21119.324200       0.724143
    21164.021200       0.720686
    21208.907700       0.717156
    21253.985100       0.713551
    21299.254500       0.709872
    21344.717200       0.706117
    21390.374300       0.702286
    21436.227200       0.698379
    21482.277100       0.694394
    21528.525300       0.690331
    21574.973000       0.686190
    21621.621600       0.681970
    21668.472400       0.677670
    21715.526600       0.673290
    21762.785600       0.668830
    21810.250800       0.664289
    21857.923500       0.659666
    21905.805000       0.654961
    21953.896800       0.650174
    22002.200200       0.645304
    22050.716600       0.640351
    22099.447500       0.635314
    22148.394200       0.630194
    22197.558300       0.624989
    22246.941000       0.619699
    22296.544000       0.614325
    22346.368700       0.608866
    22396.416600       0.603321
    22446.689100       0.597690
    22497.187900       0.591974
    22547.914300       0.586172
    22598.870100       0.580284
    22650.056600       0.574310
    22701.475600       0.568249
    22753.128600       0.562102
    22805.017100       0.555868
    22857.142900       0.549548
    22909.507400       0.543142
    22962.112500       0.536649
    23014.959700       0.530070
    23068.050700       0.523405
    23121.387300       0.516654
    23174.971000       0.509816
    23228.803700       0.502893
    23282.887100       0.495885
    23337.222900       0.488791
    23391.812900       0.481612
    23446.658900       0.474349
    23501.762600       0.467001
    23557.126000       0.459570
    23612.750900       0.452055
    23668.639100       0.444457
    23724.792400       0.436776
    23781.212800       0.429014
    23837.902300       0.421170
    23894.862600       0.413245
    23952.095800       0.405240
    24009.603800       0.397155
    24067.388700       0.388992
    24125.452400       0.380751
    24183.796900       0.372433
    24242.424200       0.364038
    24301.336600       0.355567
    24360.535900       0.347022
    24420.024400       0.338404
    24479.804200       0.329713
    24539.877300       0.320950
    24600.246000       0.312117
    24660.912500       0.303214
    24721.878900       0.294244
    24783.147500       0.285206
    24844.720500       0.276103
    24906.600200       0.266936
    24968.789000       0.257705
    25031.289100       0.248414
    25094.102900       0.239062
    25157.232700       0.229651
    25220.681000       0.220184
    25284.450100       0.210661
    25348.542500       0.201084
    25412.960600       0.191456
    25477.707000       0.181777
