1,   channel 1 SRF from file SRF_SIRS-A_Ch01.asc received July 2020 from Andrzej Kloneki
Number of data points:
281
Wavenumber (cm-1)   Filter response
      892.300000       0.000000
      892.350000       0.000000
      892.400000       0.000000
      892.450000       0.000000
      892.500000       0.000000
      892.550000       0.000000
      892.600000       0.000000
      892.650000       0.000000
      892.700000       0.000000
      892.750000       0.000000
      892.800000       0.000000
      892.850000       0.000000
      892.900000       0.000000
      892.950000       0.000000
      893.000000       0.000000
      893.050000       0.000000
      893.100000       0.000000
      893.150000       0.000000
      893.200000       0.000000
      893.250000       0.000000
      893.300000       0.000000
      893.350000       0.000000
      893.400000       0.000000
      893.450000       0.000000
      893.500000       0.000000
      893.550000       0.000000
      893.600000       0.000000
      893.650000       0.000000
      893.700000       0.000000
      893.750000       0.000000
      893.800000       0.000000
      893.850000       0.000000
      893.900000       0.000000
      893.950000       0.000600
      894.000000       0.010600
      894.050000       0.020600
      894.100000       0.030600
      894.150000       0.040600
      894.200000       0.050600
      894.250000       0.060600
      894.300000       0.070600
      894.350000       0.080600
      894.400000       0.090600
      894.450000       0.100600
      894.500000       0.110600
      894.550000       0.120600
      894.600000       0.130600
      894.650000       0.140600
      894.700000       0.150600
      894.750000       0.160600
      894.800000       0.170600
      894.850000       0.180600
      894.900000       0.190600
      894.950000       0.200600
      895.000000       0.210600
      895.050000       0.220600
      895.100000       0.230600
      895.150000       0.240600
      895.200000       0.250600
      895.250000       0.260600
      895.300000       0.270600
      895.350000       0.280600
      895.400000       0.290600
      895.450000       0.300600
      895.500000       0.310600
      895.550000       0.320600
      895.600000       0.330600
      895.650000       0.340600
      895.700000       0.350600
      895.750000       0.360600
      895.800000       0.370600
      895.850000       0.380600
      895.900000       0.390600
      895.950000       0.400600
      896.000000       0.410600
      896.050000       0.420600
      896.100000       0.430600
      896.150000       0.440600
      896.200000       0.450600
      896.250000       0.460600
      896.300000       0.470600
      896.350000       0.480600
      896.400000       0.490600
      896.450000       0.500600
      896.500000       0.510600
      896.550000       0.520600
      896.600000       0.530600
      896.650000       0.540600
      896.700000       0.550600
      896.750000       0.560600
      896.800000       0.570600
      896.850000       0.580600
      896.900000       0.590600
      896.950000       0.600600
      897.000000       0.610600
      897.050000       0.620600
      897.100000       0.630600
      897.150000       0.640600
      897.200000       0.650600
      897.250000       0.660600
      897.300000       0.670600
      897.350000       0.680600
      897.400000       0.690600
      897.450000       0.700600
      897.500000       0.710600
      897.550000       0.720600
      897.600000       0.730600
      897.650000       0.740600
      897.700000       0.750600
      897.750000       0.760600
      897.800000       0.770600
      897.850000       0.780600
      897.900000       0.790600
      897.950000       0.800600
      898.000000       0.810600
      898.050000       0.820600
      898.100000       0.830600
      898.150000       0.840600
      898.200000       0.850600
      898.250000       0.860600
      898.300000       0.870600
      898.350000       0.880600
      898.400000       0.890600
      898.450000       0.900600
      898.500000       0.910600
      898.550000       0.920600
      898.600000       0.930600
      898.650000       0.940600
      898.700000       0.950600
      898.750000       0.960600
      898.800000       0.970600
      898.850000       0.980600
      898.900000       0.990600
      898.950000       1.000000
      899.000000       1.000000
      899.050000       1.000000
      899.100000       1.000000
      899.150000       1.000000
      899.200000       1.000000
      899.250000       1.000000
      899.300000       1.000000
      899.350000       1.000000
      899.400000       1.000000
      899.450000       1.000000
      899.500000       1.000000
      899.550000       1.000000
      899.600000       1.000000
      899.650000       1.000000
      899.700000       0.990600
      899.750000       0.980600
      899.800000       0.970600
      899.850000       0.960600
      899.900000       0.950600
      899.950000       0.940600
      900.000000       0.930600
      900.050000       0.920600
      900.100000       0.910600
      900.150000       0.900600
      900.200000       0.890600
      900.250000       0.880600
      900.300000       0.870600
      900.350000       0.860600
      900.400000       0.850600
      900.450000       0.840600
      900.500000       0.830600
      900.550000       0.820600
      900.600000       0.810600
      900.650000       0.800600
      900.700000       0.790600
      900.750000       0.780600
      900.800000       0.770600
      900.850000       0.760600
      900.900000       0.750600
      900.950000       0.740600
      901.000000       0.730600
      901.050000       0.720600
      901.100000       0.710600
      901.150000       0.700600
      901.200000       0.690600
      901.250000       0.680600
      901.300000       0.670600
      901.350000       0.660600
      901.400000       0.650600
      901.450000       0.640600
      901.500000       0.630600
      901.550000       0.620600
      901.600000       0.610600
      901.650000       0.600600
      901.700000       0.590600
      901.750000       0.580600
      901.800000       0.570600
      901.850000       0.560600
      901.900000       0.550600
      901.950000       0.540600
      902.000000       0.530600
      902.050000       0.520600
      902.100000       0.510600
      902.150000       0.500600
      902.200000       0.490600
      902.250000       0.480600
      902.300000       0.470600
      902.350000       0.460600
      902.400000       0.450600
      902.450000       0.440600
      902.500000       0.430600
      902.550000       0.420600
      902.600000       0.410600
      902.650000       0.400600
      902.700000       0.390600
      902.750000       0.380600
      902.800000       0.370600
      902.850000       0.360600
      902.900000       0.350600
      902.950000       0.340600
      903.000000       0.330600
      903.050000       0.320600
      903.100000       0.310600
      903.150000       0.300600
      903.200000       0.290600
      903.250000       0.280600
      903.300000       0.270600
      903.350000       0.260600
      903.400000       0.250600
      903.450000       0.240600
      903.500000       0.230600
      903.550000       0.220600
      903.600000       0.210600
      903.650000       0.200600
      903.700000       0.190600
      903.750000       0.180600
      903.800000       0.170600
      903.850000       0.160600
      903.900000       0.150600
      903.950000       0.140600
      904.000000       0.130600
      904.050000       0.120600
      904.100000       0.110600
      904.150000       0.100600
      904.200000       0.090600
      904.250000       0.080600
      904.300000       0.070600
      904.350000       0.060600
      904.400000       0.050600
      904.450000       0.040600
      904.500000       0.030600
      904.550000       0.020600
      904.600000       0.010600
      904.650000       0.000600
      904.700000       0.000000
      904.750000       0.000000
      904.800000       0.000000
      904.850000       0.000000
      904.900000       0.000000
      904.950000       0.000000
      905.000000       0.000000
      905.050000       0.000000
      905.100000       0.000000
      905.150000       0.000000
      905.200000       0.000000
      905.250000       0.000000
      905.300000       0.000000
      905.350000       0.000000
      905.400000       0.000000
      905.450000       0.000000
      905.500000       0.000000
      905.550000       0.000000
      905.600000       0.000000
      905.650000       0.000000
      905.700000       0.000000
      905.750000       0.000000
      905.800000       0.000000
      905.850000       0.000000
      905.900000       0.000000
      905.950000       0.000000
      906.000000       0.000000
      906.050000       0.000000
      906.100000       0.000000
      906.150000       0.000000
      906.200000       0.000000
      906.250000       0.000000
      906.300000       0.000000
