2,    channel 2 SRF extracted from SRF_FY-3F_MERSI-III.zip(FY3F_MERSI_SRF_CH02_Pub.txt) (received Nov 2023)
Number of data points:
206
Wavenumber (cm-1)   Filter response
    16515.303900       0.001537
    16528.901000       0.001788
    16542.583500       0.002040
    16556.283200       0.002292
    16570.011000       0.002292
    16583.764400       0.002292
    16597.482800       0.002040
    16611.284600       0.001788
    16625.109400       0.001537
    16638.962800       0.001789
    16652.781000       0.002042
    16666.680600       0.002294
    16680.547700       0.002294
    16694.499200       0.002294
    16708.418200       0.002042
    16722.419200       0.001789
    16736.384900       0.002043
    16750.438400       0.002043
    16764.456500       0.002043
    16778.501000       0.002043
    16792.631000       0.002043
    16806.722700       0.001537
    16820.843700       0.001537
    16834.988500       0.001537
    16849.219500       0.001537
    16863.417800       0.001791
    16877.640000       0.001791
    16891.889000       0.001791
    16906.165000       0.001791
    16920.465200       0.001791
    16934.795300       0.001792
    16949.146800       0.001792
    16963.522700       0.002047
    16977.925800       0.002047
    16992.359200       0.002047
    17006.817200       0.002304
    17021.302700       0.002304
    17035.749000       0.002305
    17050.292600       0.002562
    17064.852200       0.003332
    17079.445600       0.005648
    17094.002500       0.010535
    17108.645700       0.017229
    17123.317000       0.027279
    17137.954700       0.040175
    17152.679300       0.055414
    17167.370200       0.074033
    17182.151300       0.097072
    17196.892700       0.122993
    17211.727700       0.152839
    17226.531800       0.186364
    17241.352600       0.223064
    17256.273300       0.261911
    17271.151200       0.303169
    17286.063800       0.345288
    17301.065000       0.388793
    17316.026300       0.433170
    17331.019500       0.476853
    17346.038700       0.520888
    17361.090000       0.565537
    17376.164400       0.608707
    17391.334600       0.650660
    17406.464600       0.692173
    17421.624000       0.732202
    17436.816000       0.769956
    17452.031300       0.806221
    17467.279400       0.839944
    17482.490000       0.870854
    17497.791300       0.898416
    17513.122600       0.922091
    17528.483800       0.941872
    17543.872000       0.958804
    17559.290300       0.971551
    17574.673900       0.982226
    17590.146400       0.990547
    17605.655500       0.995978
    17621.120500       0.998513
    17636.687400       1.000000
    17652.278700       0.999911
    17667.838300       0.998498
    17683.487800       0.997108
    17699.102500       0.994933
    17714.817000       0.993043
    17730.490200       0.989016
    17746.260400       0.985531
    17761.995700       0.981229
    17777.762000       0.976915
    17793.619600       0.972321
    17809.445300       0.968250
    17825.299200       0.964714
    17841.181400       0.961690
    17857.165200       0.959458
    17873.110600       0.957483
    17889.084500       0.955491
    17905.090100       0.953493
    17921.127700       0.952327
    17937.197200       0.951452
    17953.292400       0.950592
    17969.422900       0.951663
    17985.579200       0.953305
    18001.771000       0.954152
    18017.992000       0.955854
    18034.242300       0.958410
    18050.528500       0.959890
    18066.844100       0.961396
    18083.189200       0.963463
    18099.570400       0.964161
    18115.909200       0.964595
    18132.353100       0.965315
    18148.826900       0.964652
    18165.330700       0.962878
    18181.798300       0.960268
    18198.365500       0.957102
    18214.969400       0.952815
    18231.530600       0.947113
    18248.198500       0.941117
    18264.823500       0.933128
    18281.552400       0.924566
    18298.248300       0.914566
    18315.041800       0.903969
    18331.799000       0.892207
    18348.590200       0.881261
    18365.483000       0.869150
    18382.339400       0.856717
    18399.230200       0.844530
    18416.223200       0.832017
    18433.176300       0.820334
    18450.167500       0.808331
    18467.186600       0.797733
    18484.312300       0.787389
    18501.401300       0.779032
    18518.521900       0.770941
    18535.677800       0.764272
    18552.868800       0.757583
    18570.095200       0.752913
    18587.346800       0.749119
    18604.640800       0.746494
    18621.967000       0.745930
    18639.325500       0.745659
    18656.719900       0.746875
    18674.146800       0.747809
    18691.609700       0.749646
    18709.108900       0.750322
    18726.567200       0.751895
    18744.135400       0.751407
    18761.733100       0.749734
    18779.370900       0.744488
    18796.967700       0.735940
    18814.675400       0.723770
    18832.416500       0.707049
    18850.123600       0.687265
    18867.931600       0.664386
    18885.709200       0.638997
    18903.595300       0.610773
    18921.515300       0.582123
    18939.397500       0.550908
    18957.310000       0.518019
    18975.339300       0.484678
    18993.327100       0.450559
    19011.432100       0.415050
    19029.492100       0.379366
    19047.590000       0.343811
    19065.802400       0.307774
    19083.969500       0.271234
    19102.178500       0.236073
    19120.422300       0.201034
    19138.781600       0.167696
    19157.095500       0.136389
    19175.451700       0.108693
    19193.846900       0.082747
    19212.277400       0.061095
    19230.739600       0.042502
    19249.248500       0.026676
    19267.789300       0.015250
    19286.369600       0.007928
    19304.985800       0.003458
    19323.641600       0.001537
    19342.333600       0.001537
    19361.069200       0.001537
    19379.837400       0.001537
    19398.645900       0.001537
    19417.494600       0.001537
    19436.380000       0.001537
    19455.226400       0.001537
    19474.189100       0.001537
    19493.192600       0.001537
    19512.233200       0.001537
    19531.234700       0.001873
    19550.353600       0.001873
    19569.433300       0.002212
    19588.630900       0.002212
    19607.870100       0.002212
    19627.066100       0.001875
    19646.384700       0.001875
    19665.664000       0.001537
    19685.062600       0.001883
    19704.418000       0.001883
    19723.897000       0.001883
    19743.336600       0.001883
    19762.810700       0.002234
    19782.413200       0.002240
    19801.972400       0.002593
    19821.574100       0.002948
    19841.297400       0.003304
    19860.977100       0.002953
    19880.699900       0.002959
