69,   69, MVIRI VIS channel from srf_MET5_1999303_1999304_1801-Release_S10EL_10.dat
Number of data points:
806
Wavenumber (cm-1)   Filter response
     8350.730700       0.000000
     8357.710000       0.000000
     8364.701000       0.000000
     8371.703600       0.000002
     8378.718100       0.000004
     8385.744200       0.000009
     8392.782200       0.000016
     8399.832000       0.000027
     8406.893700       0.000041
     8413.967200       0.000060
     8421.052600       0.000083
     8428.150000       0.000112
     8435.259400       0.000146
     8442.380800       0.000186
     8449.514200       0.000232
     8456.659600       0.000286
     8463.817200       0.000346
     8470.986900       0.000415
     8478.168700       0.000491
     8485.362700       0.000576
     8492.569000       0.000670
     8499.787500       0.000773
     8507.018300       0.000885
     8514.261400       0.001007
     8521.516800       0.001138
     8528.784600       0.001280
     8536.064900       0.001433
     8543.357500       0.001597
     8550.662700       0.001771
     8557.980300       0.001957
     8565.310500       0.002155
     8572.653200       0.002365
     8580.008600       0.002586
     8587.376600       0.002820
     8594.757200       0.003067
     8602.150500       0.003326
     8609.556600       0.003598
     8616.975400       0.003883
     8624.407100       0.004182
     8631.851500       0.004494
     8639.308900       0.004820
     8646.779100       0.005159
     8654.262200       0.005513
     8661.758300       0.005881
     8669.267400       0.006263
     8676.789600       0.006660
     8684.324800       0.007072
     8691.873100       0.007498
     8699.434500       0.007940
     8707.009100       0.008396
     8714.596900       0.008868
     8722.198000       0.009356
     8729.812300       0.009859
     8737.439900       0.010377
     8745.080900       0.010912
     8752.735200       0.011462
     8760.403000       0.012029
     8768.084200       0.012611
     8775.778900       0.013210
     8783.487000       0.013826
     8791.208800       0.014458
     8798.944100       0.015107
     8806.693100       0.015773
     8814.455700       0.016455
     8822.232000       0.017155
     8830.022100       0.017872
     8837.825900       0.018606
     8845.643500       0.019357
     8853.475000       0.020126
     8861.320300       0.020913
     8869.179600       0.021717
     8877.052800       0.022540
     8884.940000       0.023380
     8892.841300       0.024238
     8900.756600       0.025114
     8908.686000       0.026009
     8916.629500       0.026922
     8924.587200       0.027853
     8932.559200       0.028803
     8940.545400       0.029772
     8948.545900       0.030759
     8956.560700       0.031766
     8964.589900       0.032791
     8972.633500       0.033836
     8980.691500       0.034899
     8988.764000       0.035982
     8996.851100       0.037084
     9004.952700       0.038206
     9013.068900       0.039348
     9021.199800       0.040509
     9029.345400       0.041690
     9037.505600       0.042890
     9045.680700       0.044111
     9053.870500       0.045352
     9062.075200       0.046613
     9070.294800       0.047894
     9078.529300       0.049196
     9086.778700       0.050518
     9095.043200       0.051861
     9103.322700       0.053225
     9111.617300       0.054609
     9119.927000       0.056014
     9128.251900       0.057440
     9136.592100       0.058887
     9144.947400       0.060355
     9153.318100       0.061845
     9161.704100       0.063355
     9170.105500       0.064888
     9178.522300       0.066441
     9186.954500       0.068016
     9195.402300       0.069613
     9203.865600       0.071232
     9212.344500       0.072873
     9220.839100       0.074535
     9229.349300       0.076219
     9237.875300       0.077926
     9246.417000       0.079655
     9254.974500       0.081406
     9263.547900       0.083179
     9272.137200       0.084974
     9280.742500       0.086792
     9289.363700       0.088633
     9298.000900       0.090496
     9306.654300       0.092382
     9315.323700       0.094291
     9324.009300       0.096222
     9332.711200       0.098177
     9341.429200       0.100154
     9350.163600       0.102154
     9358.914400       0.104177
     9367.681500       0.106224
     9376.465100       0.108294
     9385.265100       0.110386
     9394.081700       0.112502
     9402.914900       0.114642
     9411.764700       0.116804
     9420.631200       0.118991
     9429.514400       0.121200
     9438.414300       0.123433
     9447.331100       0.125690
     9456.264800       0.127970
     9465.215300       0.130273
     9474.182900       0.132600
     9483.167400       0.134951
     9492.169000       0.137326
     9501.187600       0.139724
     9510.223500       0.142146
     9519.276500       0.144591
     9528.346800       0.147060
     9537.434400       0.149553
     9546.539400       0.152070
     9555.661700       0.154610
     9564.801500       0.157174
     9573.958800       0.159762
     9583.133700       0.162373
     9592.326100       0.165008
     9601.536200       0.167667
     9610.764100       0.170349
     9620.009600       0.173055
     9629.273000       0.175785
     9638.554200       0.178538
     9647.853400       0.181314
     9657.170400       0.184114
     9666.505600       0.186938
     9675.858700       0.189785
     9685.230000       0.192655
     9694.619500       0.195548
     9704.027200       0.198465
     9713.453100       0.201405
     9722.897400       0.204368
     9732.360100       0.207354
     9741.841200       0.210363
     9751.340800       0.213395
     9760.859000       0.216450
     9770.395700       0.219528
     9779.951100       0.222627
     9789.525200       0.225750
     9799.118100       0.228896
     9808.729800       0.232063
     9818.360300       0.235253
     9828.009800       0.238464
     9837.678300       0.241699
     9847.365800       0.244955
     9857.072400       0.248232
     9866.798200       0.251531
     9876.543200       0.254852
     9886.307500       0.258194
     9896.091000       0.261558
     9905.894000       0.264943
     9915.716400       0.268348
     9925.558300       0.271775
     9935.419800       0.275222
     9945.300800       0.278690
     9955.201600       0.282178
     9965.122100       0.285686
     9975.062300       0.289214
     9985.022500       0.292762
     9995.002500       0.296330
    10005.002500       0.299917
    10015.022500       0.303524
    10025.062700       0.307149
    10035.122900       0.310794
    10045.203400       0.314457
    10055.304200       0.318139
    10065.425300       0.321839
    10075.566800       0.325557
    10085.728700       0.329292
    10095.911200       0.333046
    10106.114200       0.336817
    10116.337900       0.340605
    10126.582300       0.344410
    10136.847400       0.348232
    10147.133400       0.352070
    10157.440300       0.355925
    10167.768200       0.359795
    10178.117000       0.363681
    10188.487000       0.367582
    10198.878100       0.371499
    10209.290500       0.375431
    10219.724100       0.379377
    10230.179000       0.383338
    10240.655400       0.387313
    10251.153300       0.391301
    10261.672700       0.395304
    10272.213700       0.399319
    10282.776300       0.403347
    10293.360800       0.407389
    10303.967000       0.411442
    10314.595200       0.415507
    10325.245200       0.419585
    10335.917300       0.423673
    10346.611500       0.427773
    10357.327800       0.431884
    10368.066400       0.436005
    10378.827200       0.440136
    10389.610400       0.444277
    10400.416000       0.448428
    10411.244100       0.452588
    10422.094800       0.456757
    10432.968200       0.460934
    10443.864200       0.465119
    10454.783100       0.469312
    10465.724800       0.473513
    10476.689400       0.477721
    10487.677000       0.481936
    10498.687700       0.486157
    10509.721500       0.490384
    10520.778500       0.494617
    10531.858900       0.498855
    10542.962600       0.503098
    10554.089700       0.507346
    10565.240400       0.511598
    10576.414600       0.515854
    10587.612500       0.520113
    10598.834100       0.524376
    10610.079600       0.528641
    10621.348900       0.532909
    10632.642200       0.537178
    10643.959600       0.541450
    10655.301000       0.545722
    10666.666700       0.549996
    10678.056600       0.554269
    10689.470900       0.558543
    10700.909600       0.562817
    10712.372800       0.567089
    10723.860600       0.571361
    10735.373100       0.575631
    10746.910300       0.579899
    10758.472300       0.584165
    10770.059200       0.588428
    10781.671200       0.592688
    10793.308100       0.596945
    10804.970300       0.601198
    10816.657700       0.605446
    10828.370300       0.609690
    10840.108400       0.613928
    10851.871900       0.618161
    10863.661100       0.622388
    10875.475800       0.626609
    10887.316300       0.630823
    10899.182600       0.635029
    10911.074700       0.639229
    10922.992900       0.643420
    10934.937100       0.647603
    10946.907500       0.651777
    10958.904100       0.655942
    10970.927000       0.660098
    10982.976400       0.664243
    10995.052200       0.668378
    11007.154700       0.672502
    11019.283700       0.676616
    11031.439600       0.680717
    11043.622300       0.684807
    11055.832000       0.688884
    11068.068600       0.692948
    11080.332400       0.697000
    11092.623400       0.701037
    11104.941700       0.705061
    11117.287400       0.709070
    11129.660500       0.713065
    11142.061300       0.717044
    11154.489700       0.721008
    11166.945800       0.724956
    11179.429800       0.728887
    11191.941800       0.732802
    11204.481800       0.736700
    11217.049900       0.740581
    11229.646300       0.744443
    11242.270900       0.748287
    11254.924000       0.752113
    11267.605600       0.755920
    11280.315800       0.759707
    11293.054800       0.763475
    11305.822500       0.767222
    11318.619100       0.770950
    11331.444800       0.774656
    11344.299500       0.778341
    11357.183400       0.782005
    11370.096600       0.785647
    11383.039300       0.789266
    11396.011400       0.792863
    11409.013100       0.796437
    11422.044500       0.799988
    11435.105800       0.803516
    11448.196900       0.807019
    11461.318100       0.810498
    11474.469300       0.813953
    11487.650800       0.817383
    11500.862600       0.820787
    11514.104800       0.824166
    11527.377500       0.827519
    11540.680900       0.830846
    11554.015000       0.834147
    11567.380000       0.837421
    11580.775900       0.840668
    11594.202900       0.843887
    11607.661100       0.847079
    11621.150500       0.850243
    11634.671300       0.853378
    11648.223600       0.856485
    11661.807600       0.859564
    11675.423200       0.862613
    11689.070700       0.865633
    11702.750100       0.868624
    11716.461600       0.871585
    11730.205300       0.874515
    11743.981200       0.877416
    11757.789500       0.880286
    11771.630400       0.883125
    11785.503800       0.885933
    11799.410000       0.888710
    11813.349100       0.891456
    11827.321100       0.894170
    11841.326200       0.896852
    11855.364600       0.899502
    11869.436200       0.902120
    11883.541300       0.904705
    11897.680000       0.907257
    11911.852300       0.909777
    11926.058400       0.912264
    11940.298500       0.914718
    11954.572600       0.917138
    11968.880900       0.919524
    11983.223500       0.921877
    11997.600500       0.924197
    12012.012000       0.926482
    12026.458200       0.928733
    12040.939200       0.930950
    12055.455100       0.933133
    12070.006000       0.935281
    12084.592100       0.937394
    12099.213600       0.939473
    12113.870400       0.941517
    12128.562800       0.943525
    12143.290800       0.945499
    12158.054700       0.947438
    12172.854500       0.949342
    12187.690400       0.951210
    12202.562500       0.953043
    12217.471000       0.954841
    12232.415900       0.956603
    12247.397400       0.958329
    12262.415700       0.960020
    12277.470800       0.961676
    12292.563000       0.963296
    12307.692300       0.964880
    12322.858900       0.966428
    12338.062900       0.967941
    12353.304500       0.969418
    12368.583800       0.970859
    12383.900900       0.972265
    12399.256000       0.973635
    12414.649300       0.974969
    12430.080800       0.976268
    12445.550700       0.977530
    12461.059200       0.978758
    12476.606400       0.979949
    12492.192400       0.981106
    12507.817400       0.982226
    12523.481500       0.983311
    12539.185000       0.984361
    12554.927800       0.985376
    12570.710200       0.986355
    12586.532400       0.987300
    12602.394500       0.988209
    12618.296500       0.989083
    12634.238800       0.989923
    12650.221400       0.990728
    12666.244500       0.991498
    12682.308200       0.992233
    12698.412700       0.992935
    12714.558200       0.993602
    12730.744700       0.994234
    12746.972600       0.994833
    12763.241900       0.995398
    12779.552700       0.995930
    12795.905300       0.996428
    12812.299800       0.996892
    12828.736400       0.997324
    12845.215200       0.997722
    12861.736300       0.998087
    12878.300100       0.998420
    12894.906500       0.998721
    12911.555800       0.998989
    12928.248200       0.999225
    12944.983800       0.999430
    12961.762800       0.999602
    12978.585300       0.999744
    12995.451600       0.999854
    13012.361700       0.999933
    13029.316000       0.999982
    13046.314400       1.000000
    13063.357300       0.999988
    13080.444700       0.999946
    13097.576900       0.999874
    13114.754100       0.999773
    13131.976400       0.999643
    13149.243900       0.999484
    13166.556900       0.999296
    13183.915600       0.999080
    13201.320100       0.998836
    13218.770700       0.998564
    13236.267400       0.998265
    13253.810500       0.997938
    13271.400100       0.997585
    13289.036500       0.997205
    13306.719900       0.996799
    13324.450400       0.996367
    13342.228200       0.995909
    13360.053400       0.995426
    13377.926400       0.994918
    13395.847300       0.994386
    13413.816200       0.993829
    13431.833400       0.993249
    13449.899100       0.992645
    13468.013500       0.992017
    13486.176700       0.991367
    13504.388900       0.990694
    13522.650400       0.989999
    13540.961400       0.989283
    13559.322000       0.988545
    13577.732500       0.987786
    13596.193100       0.987006
    13614.703900       0.986206
    13633.265200       0.985386
    13651.877100       0.984546
    13670.540000       0.983687
    13689.253900       0.982810
    13708.019200       0.981914
    13726.836000       0.981000
    13745.704500       0.980068
    13764.624900       0.979120
    13783.597500       0.978154
    13802.622500       0.977172
    13821.700100       0.976174
    13840.830400       0.975161
    13860.013900       0.974132
    13879.250500       0.973089
    13898.540700       0.972031
    13917.884500       0.970959
    13937.282200       0.969873
    13956.734100       0.968775
    13976.240400       0.967664
    13995.801300       0.966540
    14015.417000       0.965405
    14035.087700       0.964258
    14054.813800       0.963100
    14074.595400       0.961931
    14094.432700       0.960752
    14114.326000       0.959563
    14134.275600       0.958365
    14154.281700       0.957158
    14174.344400       0.955942
    14194.464200       0.954719
    14214.641100       0.953487
    14234.875400       0.952249
    14255.167500       0.951003
    14275.517500       0.949751
    14295.925700       0.948493
    14316.392300       0.947229
    14336.917600       0.945960
    14357.501800       0.944686
    14378.145200       0.943408
    14398.848100       0.942126
    14419.610700       0.940841
    14440.433200       0.939552
    14461.316000       0.938260
    14482.259200       0.936966
    14503.263200       0.935671
    14524.328200       0.934373
    14545.454500       0.933075
    14566.642400       0.931776
    14587.892000       0.930476
    14609.203800       0.929177
    14630.577900       0.927878
    14652.014700       0.926580
    14673.514300       0.925283
    14695.077100       0.923988
    14716.703500       0.922695
    14738.393500       0.921404
    14760.147600       0.920116
    14781.966000       0.918831
    14803.849000       0.917549
    14825.796900       0.916271
    14847.809900       0.914998
    14869.888500       0.913729
    14892.032800       0.912465
    14914.243100       0.911206
    14936.519800       0.909953
    14958.863100       0.908706
    14981.273400       0.907465
    15003.750900       0.906230
    15026.296000       0.905003
    15048.909000       0.903783
    15071.590100       0.902570
    15094.339600       0.901365
    15117.158000       0.900169
    15140.045400       0.898981
    15163.002300       0.897802
    15186.028900       0.896631
    15209.125500       0.895471
    15232.292500       0.894319
    15255.530100       0.893178
    15278.838800       0.892047
    15302.218800       0.890926
    15325.670500       0.889816
    15349.194200       0.888717
    15372.790200       0.887629
    15396.458800       0.886553
    15420.200500       0.885488
    15444.015400       0.884435
    15467.904100       0.883394
    15491.866800       0.882365
    15515.903800       0.881349
    15540.015500       0.880346
    15564.202300       0.879355
    15588.464500       0.878378
    15612.802500       0.877414
    15637.216600       0.876463
    15661.707100       0.875525
    15686.274500       0.874602
    15710.919100       0.873692
    15735.641200       0.872796
    15760.441300       0.871914
    15785.319700       0.871047
    15810.276700       0.870194
    15835.312700       0.869355
    15860.428200       0.868531
    15885.623500       0.867721
    15910.899000       0.866926
    15936.255000       0.866146
    15961.691900       0.865381
    15987.210200       0.864630
    16012.810200       0.863895
    16038.492400       0.863174
    16064.257000       0.862469
    16090.104600       0.861778
    16116.035500       0.861103
    16142.050000       0.860442
    16168.148700       0.859796
    16194.332000       0.859165
    16220.600200       0.858550
    16246.953700       0.857949
    16273.393000       0.857363
    16299.918500       0.856791
    16326.530600       0.856235
    16353.229800       0.855693
    16380.016400       0.855165
    16406.890900       0.854653
    16433.853700       0.854154
    16460.905300       0.853669
    16488.046200       0.853199
    16515.276600       0.852743
    16542.597200       0.852300
    16570.008300       0.851871
    16597.510400       0.851456
    16625.103900       0.851054
    16652.789300       0.850665
    16680.567100       0.850288
    16708.437800       0.849925
    16736.401700       0.849574
    16764.459300       0.849235
    16792.611300       0.848909
    16820.857900       0.848594
    16849.199700       0.848290
    16877.637100       0.847998
    16906.170800       0.847717
    16934.801000       0.847446
    16963.528400       0.847186
    16992.353400       0.846936
    17021.276600       0.846696
    17050.298400       0.846465
    17079.419300       0.846243
    17108.639900       0.846029
    17137.960600       0.845824
    17167.382000       0.845627
    17196.904600       0.845438
    17226.528900       0.845256
    17256.255400       0.845080
    17286.084700       0.844911
    17316.017300       0.844748
    17346.053800       0.844590
    17376.194600       0.844438
    17406.440400       0.844290
    17436.791600       0.844146
    17467.248900       0.844005
    17497.812800       0.843868
    17528.483800       0.843734
    17559.262500       0.843601
    17590.149500       0.843471
    17621.145400       0.843341
    17652.250700       0.843212
    17683.466000       0.843083
    17714.791900       0.842953
    17746.228900       0.842823
    17777.777800       0.842690
    17809.439000       0.842556
    17841.213200       0.842418
    17873.101000       0.842277
    17905.103000       0.842132
    17937.219700       0.841983
    17969.451900       0.841828
    18001.800200       0.841667
    18034.265100       0.841499
    18066.847300       0.841324
    18099.547500       0.841141
    18132.366300       0.840950
    18165.304300       0.840749
    18198.362100       0.840538
    18231.540600       0.840317
    18264.840200       0.840084
    18298.261700       0.839839
    18331.805700       0.839581
    18365.472900       0.839309
    18399.264000       0.839023
    18433.179700       0.838722
    18467.220700       0.838405
    18501.387600       0.838072
    18535.681200       0.837721
    18570.102100       0.837352
    18604.651200       0.836965
    18639.329000       0.836557
    18674.136300       0.836129
    18709.073900       0.835679
    18744.142500       0.835208
    18779.342700       0.834713
    18814.675400       0.834195
    18850.141400       0.833652
    18885.741300       0.833084
    18921.475900       0.832489
    18957.346000       0.831867
    18993.352300       0.831218
    19029.495700       0.830539
    19065.776900       0.829831
    19102.196800       0.829092
    19138.756000       0.828322
    19175.455400       0.827519
    19212.295900       0.826684
    19249.278200       0.825814
    19286.403100       0.824910
    19323.671500       0.823969
    19361.084200       0.822993
    19398.642100       0.821978
    19436.346000       0.820925
    19474.196700       0.819833
    19512.195100       0.818700
    19550.342100       0.817527
    19588.638600       0.816311
    19627.085400       0.815052
    19665.683400       0.813750
    19704.433500       0.812403
    19743.336600       0.811010
    19782.393700       0.809571
    19821.605600       0.808084
    19860.973200       0.806549
    19900.497500       0.804965
    19940.179500       0.803330
    19980.020000       0.801645
    20020.020000       0.799908
    20060.180500       0.798118
    20100.502500       0.796274
    20140.986900       0.794376
    20181.634700       0.792422
    20222.446900       0.790413
    20263.424500       0.788345
    20304.568500       0.786220
    20345.880000       0.784036
    20387.359800       0.781792
    20429.009200       0.779488
    20470.829100       0.777122
    20512.820500       0.774693
    20554.984600       0.772202
    20597.322300       0.769646
    20639.834900       0.767026
    20682.523300       0.764340
    20725.388600       0.761587
    20768.432000       0.758768
    20811.654500       0.755880
    20855.057400       0.752923
    20898.641600       0.749897
    20942.408400       0.746800
    20986.358900       0.743632
    21030.494200       0.740393
    21074.815600       0.737080
    21119.324200       0.733695
    21164.021200       0.730235
    21208.907700       0.726700
    21253.985100       0.723090
    21299.254500       0.719404
    21344.717200       0.715641
    21390.374300       0.711801
    21436.227200       0.707882
    21482.277100       0.703885
    21528.525300       0.699808
    21574.973000       0.695652
    21621.621600       0.691415
    21668.472400       0.687097
    21715.526600       0.682697
    21762.785600       0.678215
    21810.250800       0.673651
    21857.923500       0.669003
    21905.805000       0.664272
    21953.896800       0.659457
    22002.200200       0.654557
    22050.716600       0.649573
    22099.447500       0.644502
    22148.394200       0.639347
    22197.558300       0.634105
    22246.941000       0.628777
    22296.544000       0.623362
    22346.368700       0.617861
    22396.416600       0.612272
    22446.689100       0.606595
    22497.187900       0.600831
    22547.914300       0.594979
    22598.870100       0.589039
    22650.056600       0.583011
    22701.475600       0.576894
    22753.128600       0.570689
    22805.017100       0.564396
    22857.142900       0.558014
    22909.507400       0.551544
    22962.112500       0.544985
    23014.959700       0.538337
    23068.050700       0.531602
    23121.387300       0.524778
    23174.971000       0.517866
    23228.803700       0.510866
    23282.887100       0.503779
    23337.222900       0.496604
    23391.812900       0.489341
    23446.658900       0.481992
    23501.762600       0.474557
    23557.126000       0.467035
    23612.750900       0.459428
    23668.639100       0.451735
    23724.792400       0.443957
    23781.212800       0.436095
    23837.902300       0.428150
    23894.862600       0.420121
    23952.095800       0.412010
    24009.603800       0.403817
    24067.388700       0.395542
    24125.452400       0.387188
    24183.796900       0.378754
    24242.424200       0.370240
    24301.336600       0.361650
    24360.535900       0.352982
    24420.024400       0.344238
    24479.804200       0.335419
    24539.877300       0.326527
    24600.246000       0.317561
    24660.912500       0.308524
    24721.878900       0.299417
    24783.147500       0.290239
    24844.720500       0.280995
    24906.600200       0.271683
    24968.789000       0.262306
    25031.289100       0.252866
    25094.102900       0.243362
    25157.232700       0.233799
    25220.681000       0.224175
    25284.450100       0.214495
    25348.542500       0.204758
    25412.960600       0.194967
    25477.707000       0.185123
