1,   1, MVIRI VIS channel from srf_MET4_1989213_1989214_1801-Release_S10EL_10.dat
Number of data points:
752
Wavenumber (cm-1)   Filter response
     8745.080900       0.000000
     8752.735200       0.000000
     8760.403000       0.000001
     8768.084200       0.000058
     8775.778900       0.000196
     8783.487000       0.000413
     8791.208800       0.000707
     8798.944100       0.001075
     8806.693100       0.001515
     8814.455700       0.002025
     8822.232000       0.002603
     8830.022100       0.003247
     8837.825900       0.003954
     8845.643500       0.004724
     8853.475000       0.005554
     8861.320300       0.006441
     8869.179600       0.007386
     8877.052800       0.008385
     8884.940000       0.009438
     8892.841300       0.010542
     8900.756600       0.011696
     8908.686000       0.012898
     8916.629500       0.014148
     8924.587200       0.015444
     8932.559200       0.016783
     8940.545400       0.018167
     8948.545900       0.019592
     8956.560700       0.021057
     8964.589900       0.022562
     8972.633500       0.024105
     8980.691500       0.025686
     8988.764000       0.027303
     8996.851100       0.028955
     9004.952700       0.030641
     9013.068900       0.032361
     9021.199800       0.034113
     9029.345400       0.035897
     9037.505600       0.037711
     9045.680700       0.039555
     9053.870500       0.041429
     9062.075200       0.043331
     9070.294800       0.045260
     9078.529300       0.047217
     9086.778700       0.049200
     9095.043200       0.051209
     9103.322700       0.053243
     9111.617300       0.055302
     9119.927000       0.057384
     9128.251900       0.059491
     9136.592100       0.061621
     9144.947400       0.063773
     9153.318100       0.065947
     9161.704100       0.068144
     9170.105500       0.070361
     9178.522300       0.072600
     9186.954500       0.074859
     9195.402300       0.077139
     9203.865600       0.079439
     9212.344500       0.081759
     9220.839100       0.084098
     9229.349300       0.086456
     9237.875300       0.088833
     9246.417000       0.091229
     9254.974500       0.093643
     9263.547900       0.096076
     9272.137200       0.098526
     9280.742500       0.100995
     9289.363700       0.103481
     9298.000900       0.105985
     9306.654300       0.108507
     9315.323700       0.111045
     9324.009300       0.113601
     9332.711200       0.116175
     9341.429200       0.118765
     9350.163600       0.121372
     9358.914400       0.123996
     9367.681500       0.126637
     9376.465100       0.129295
     9385.265100       0.131969
     9394.081700       0.134660
     9402.914900       0.137367
     9411.764700       0.140092
     9420.631200       0.142832
     9429.514400       0.145590
     9438.414300       0.148364
     9447.331100       0.151154
     9456.264800       0.153961
     9465.215300       0.156784
     9474.182900       0.159624
     9483.167400       0.162481
     9492.169000       0.165353
     9501.187600       0.168243
     9510.223500       0.171149
     9519.276500       0.174072
     9528.346800       0.177011
     9537.434400       0.179968
     9546.539400       0.182940
     9555.661700       0.185930
     9564.801500       0.188935
     9573.958800       0.191958
     9583.133700       0.194998
     9592.326100       0.198054
     9601.536200       0.201127
     9610.764100       0.204217
     9620.009600       0.207324
     9629.273000       0.210448
     9638.554200       0.213589
     9647.853400       0.216746
     9657.170400       0.219921
     9666.505600       0.223112
     9675.858700       0.226321
     9685.230000       0.229546
     9694.619500       0.232789
     9704.027200       0.236048
     9713.453100       0.239325
     9722.897400       0.242619
     9732.360100       0.245930
     9741.841200       0.249257
     9751.340800       0.252602
     9760.859000       0.255964
     9770.395700       0.259343
     9779.951100       0.262738
     9789.525200       0.266151
     9799.118100       0.269581
     9808.729800       0.273028
     9818.360300       0.276491
     9828.009800       0.279971
     9837.678300       0.283469
     9847.365800       0.286983
     9857.072400       0.290513
     9866.798200       0.294061
     9876.543200       0.297625
     9886.307500       0.301205
     9896.091000       0.304803
     9905.894000       0.308416
     9915.716400       0.312046
     9925.558300       0.315691
     9935.419800       0.319354
     9945.300800       0.323032
     9955.201600       0.326726
     9965.122100       0.330436
     9975.062300       0.334162
     9985.022500       0.337903
     9995.002500       0.341661
    10005.002500       0.345433
    10015.022500       0.349220
    10025.062700       0.353023
    10035.122900       0.356841
    10045.203400       0.360673
    10055.304200       0.364520
    10065.425300       0.368382
    10075.566800       0.372258
    10085.728700       0.376148
    10095.911200       0.380053
    10106.114200       0.383971
    10116.337900       0.387903
    10126.582300       0.391848
    10136.847400       0.395806
    10147.133400       0.399778
    10157.440300       0.403762
    10167.768200       0.407759
    10178.117000       0.411769
    10188.487000       0.415790
    10198.878100       0.419824
    10209.290500       0.423870
    10219.724100       0.427926
    10230.179000       0.431994
    10240.655400       0.436074
    10251.153300       0.440164
    10261.672700       0.444264
    10272.213700       0.448374
    10282.776300       0.452495
    10293.360800       0.456625
    10303.967000       0.460765
    10314.595200       0.464913
    10325.245200       0.469071
    10335.917300       0.473237
    10346.611500       0.477411
    10357.327800       0.481593
    10368.066400       0.485783
    10378.827200       0.489980
    10389.610400       0.494184
    10400.416000       0.498395
    10411.244100       0.502612
    10422.094800       0.506835
    10432.968200       0.511063
    10443.864200       0.515298
    10454.783100       0.519537
    10465.724800       0.523780
    10476.689400       0.528028
    10487.677000       0.532280
    10498.687700       0.536536
    10509.721500       0.540794
    10520.778500       0.545056
    10531.858900       0.549320
    10542.962600       0.553586
    10554.089700       0.557854
    10565.240400       0.562123
    10576.414600       0.566393
    10587.612500       0.570664
    10598.834100       0.574936
    10610.079600       0.579206
    10621.348900       0.583477
    10632.642200       0.587746
    10643.959600       0.592014
    10655.301000       0.596280
    10666.666700       0.600544
    10678.056600       0.604806
    10689.470900       0.609064
    10700.909600       0.613320
    10712.372800       0.617571
    10723.860600       0.621818
    10735.373100       0.626061
    10746.910300       0.630298
    10758.472300       0.634530
    10770.059200       0.638757
    10781.671200       0.642977
    10793.308100       0.647190
    10804.970300       0.651396
    10816.657700       0.655595
    10828.370300       0.659785
    10840.108400       0.663967
    10851.871900       0.668141
    10863.661100       0.672305
    10875.475800       0.676460
    10887.316300       0.680604
    10899.182600       0.684738
    10911.074700       0.688861
    10922.992900       0.692972
    10934.937100       0.697072
    10946.907500       0.701159
    10958.904100       0.705234
    10970.927000       0.709296
    10982.976400       0.713344
    10995.052200       0.717379
    11007.154700       0.721398
    11019.283700       0.725404
    11031.439600       0.729394
    11043.622300       0.733368
    11055.832000       0.737326
    11068.068600       0.741268
    11080.332400       0.745193
    11092.623400       0.749101
    11104.941700       0.752990
    11117.287400       0.756862
    11129.660500       0.760715
    11142.061300       0.764550
    11154.489700       0.768364
    11166.945800       0.772159
    11179.429800       0.775934
    11191.941800       0.779689
    11204.481800       0.783422
    11217.049900       0.787134
    11229.646300       0.790824
    11242.270900       0.794491
    11254.924000       0.798137
    11267.605600       0.801759
    11280.315800       0.805358
    11293.054800       0.808933
    11305.822500       0.812485
    11318.619100       0.816011
    11331.444800       0.819513
    11344.299500       0.822990
    11357.183400       0.826441
    11370.096600       0.829866
    11383.039300       0.833264
    11396.011400       0.836636
    11409.013100       0.839981
    11422.044500       0.843299
    11435.105800       0.846588
    11448.196900       0.849850
    11461.318100       0.853083
    11474.469300       0.856288
    11487.650800       0.859463
    11500.862600       0.862609
    11514.104800       0.865726
    11527.377500       0.868812
    11540.680900       0.871868
    11554.015000       0.874893
    11567.380000       0.877887
    11580.775900       0.880850
    11594.202900       0.883781
    11607.661100       0.886681
    11621.150500       0.889548
    11634.671300       0.892383
    11648.223600       0.895185
    11661.807600       0.897954
    11675.423200       0.900690
    11689.070700       0.903392
    11702.750100       0.906061
    11716.461600       0.908695
    11730.205300       0.911296
    11743.981200       0.913862
    11757.789500       0.916393
    11771.630400       0.918889
    11785.503800       0.921350
    11799.410000       0.923775
    11813.349100       0.926165
    11827.321100       0.928519
    11841.326200       0.930837
    11855.364600       0.933119
    11869.436200       0.935365
    11883.541300       0.937573
    11897.680000       0.939745
    11911.852300       0.941880
    11926.058400       0.943978
    11940.298500       0.946039
    11954.572600       0.948062
    11968.880900       0.950048
    11983.223500       0.951996
    11997.600500       0.953906
    12012.012000       0.955778
    12026.458200       0.957612
    12040.939200       0.959407
    12055.455100       0.961165
    12070.006000       0.962884
    12084.592100       0.964564
    12099.213600       0.966206
    12113.870400       0.967809
    12128.562800       0.969373
    12143.290800       0.970898
    12158.054700       0.972385
    12172.854500       0.973832
    12187.690400       0.975240
    12202.562500       0.976610
    12217.471000       0.977940
    12232.415900       0.979231
    12247.397400       0.980482
    12262.415700       0.981695
    12277.470800       0.982868
    12292.563000       0.984002
    12307.692300       0.985096
    12322.858900       0.986152
    12338.062900       0.987168
    12353.304500       0.988145
    12368.583800       0.989083
    12383.900900       0.989981
    12399.256000       0.990841
    12414.649300       0.991661
    12430.080800       0.992442
    12445.550700       0.993184
    12461.059200       0.993888
    12476.606400       0.994552
    12492.192400       0.995178
    12507.817400       0.995765
    12523.481500       0.996313
    12539.185000       0.996823
    12554.927800       0.997294
    12570.710200       0.997728
    12586.532400       0.998122
    12602.394500       0.998479
    12618.296500       0.998798
    12634.238800       0.999079
    12650.221400       0.999323
    12666.244500       0.999528
    12682.308200       0.999697
    12698.412700       0.999828
    12714.558200       0.999922
    12730.744700       0.999979
    12746.972600       1.000000
    12763.241900       0.999984
    12779.552700       0.999932
    12795.905300       0.999843
    12812.299800       0.999719
    12828.736400       0.999558
    12845.215200       0.999363
    12861.736300       0.999131
    12878.300100       0.998865
    12894.906500       0.998564
    12911.555800       0.998228
    12928.248200       0.997858
    12944.983800       0.997454
    12961.762800       0.997016
    12978.585300       0.996544
    12995.451600       0.996039
    13012.361700       0.995500
    13029.316000       0.994929
    13046.314400       0.994325
    13063.357300       0.993689
    13080.444700       0.993021
    13097.576900       0.992321
    13114.754100       0.991590
    13131.976400       0.990828
    13149.243900       0.990035
    13166.556900       0.989211
    13183.915600       0.988357
    13201.320100       0.987474
    13218.770700       0.986560
    13236.267400       0.985618
    13253.810500       0.984647
    13271.400100       0.983647
    13289.036500       0.982619
    13306.719900       0.981563
    13324.450400       0.980480
    13342.228200       0.979370
    13360.053400       0.978233
    13377.926400       0.977069
    13395.847300       0.975880
    13413.816200       0.974665
    13431.833400       0.973424
    13449.899100       0.972159
    13468.013500       0.970869
    13486.176700       0.969555
    13504.388900       0.968217
    13522.650400       0.966856
    13540.961400       0.965472
    13559.322000       0.964066
    13577.732500       0.962637
    13596.193100       0.961187
    13614.703900       0.959715
    13633.265200       0.958222
    13651.877100       0.956709
    13670.540000       0.955176
    13689.253900       0.953623
    13708.019200       0.952051
    13726.836000       0.950460
    13745.704500       0.948850
    13764.624900       0.947223
    13783.597500       0.945578
    13802.622500       0.943916
    13821.700100       0.942238
    13840.830400       0.940543
    13860.013900       0.938832
    13879.250500       0.937106
    13898.540700       0.935365
    13917.884500       0.933610
    13937.282200       0.931841
    13956.734100       0.930058
    13976.240400       0.928262
    13995.801300       0.926453
    14015.417000       0.924632
    14035.087700       0.922799
    14054.813800       0.920955
    14074.595400       0.919100
    14094.432700       0.917235
    14114.326000       0.915359
    14134.275600       0.913474
    14154.281700       0.911580
    14174.344400       0.909677
    14194.464200       0.907767
    14214.641100       0.905848
    14234.875400       0.903922
    14255.167500       0.901989
    14275.517500       0.900050
    14295.925700       0.898105
    14316.392300       0.896155
    14336.917600       0.894199
    14357.501800       0.892239
    14378.145200       0.890275
    14398.848100       0.888307
    14419.610700       0.886336
    14440.433200       0.884362
    14461.316000       0.882385
    14482.259200       0.880407
    14503.263200       0.878427
    14524.328200       0.876446
    14545.454500       0.874465
    14566.642400       0.872483
    14587.892000       0.870501
    14609.203800       0.868521
    14630.577900       0.866541
    14652.014700       0.864563
    14673.514300       0.862586
    14695.077100       0.860612
    14716.703500       0.858641
    14738.393500       0.856673
    14760.147600       0.854709
    14781.966000       0.852748
    14803.849000       0.850792
    14825.796900       0.848841
    14847.809900       0.846895
    14869.888500       0.844954
    14892.032800       0.843019
    14914.243100       0.841091
    14936.519800       0.839170
    14958.863100       0.837255
    14981.273400       0.835348
    15003.750900       0.833449
    15026.296000       0.831558
    15048.909000       0.829676
    15071.590100       0.827802
    15094.339600       0.825938
    15117.158000       0.824083
    15140.045400       0.822239
    15163.002300       0.820404
    15186.028900       0.818581
    15209.125500       0.816768
    15232.292500       0.814966
    15255.530100       0.813176
    15278.838800       0.811398
    15302.218800       0.809632
    15325.670500       0.807879
    15349.194200       0.806138
    15372.790200       0.804411
    15396.458800       0.802697
    15420.200500       0.800996
    15444.015400       0.799309
    15467.904100       0.797637
    15491.866800       0.795979
    15515.903800       0.794335
    15540.015500       0.792707
    15564.202300       0.791093
    15588.464500       0.789495
    15612.802500       0.787913
    15637.216600       0.786346
    15661.707100       0.784795
    15686.274500       0.783261
    15710.919100       0.781743
    15735.641200       0.780241
    15760.441300       0.778757
    15785.319700       0.777289
    15810.276700       0.775839
    15835.312700       0.774405
    15860.428200       0.772989
    15885.623500       0.771591
    15910.899000       0.770210
    15936.255000       0.768848
    15961.691900       0.767503
    15987.210200       0.766176
    16012.810200       0.764867
    16038.492400       0.763577
    16064.257000       0.762305
    16090.104600       0.761052
    16116.035500       0.759816
    16142.050000       0.758600
    16168.148700       0.757402
    16194.332000       0.756223
    16220.600200       0.755062
    16246.953700       0.753920
    16273.393000       0.752797
    16299.918500       0.751692
    16326.530600       0.750607
    16353.229800       0.749540
    16380.016400       0.748492
    16406.890900       0.747462
    16433.853700       0.746451
    16460.905300       0.745459
    16488.046200       0.744485
    16515.276600       0.743530
    16542.597200       0.742593
    16570.008300       0.741674
    16597.510400       0.740774
    16625.103900       0.739892
    16652.789300       0.739028
    16680.567100       0.738182
    16708.437800       0.737353
    16736.401700       0.736543
    16764.459300       0.735749
    16792.611300       0.734974
    16820.857900       0.734215
    16849.199700       0.733473
    16877.637100       0.732748
    16906.170800       0.732040
    16934.801000       0.731348
    16963.528400       0.730673
    16992.353400       0.730013
    17021.276600       0.729369
    17050.298400       0.728741
    17079.419300       0.728128
    17108.639900       0.727530
    17137.960600       0.726946
    17167.382000       0.726377
    17196.904600       0.725823
    17226.528900       0.725282
    17256.255400       0.724754
    17286.084700       0.724240
    17316.017300       0.723739
    17346.053800       0.723250
    17376.194600       0.722774
    17406.440400       0.722309
    17436.791600       0.721856
    17467.248900       0.721414
    17497.812800       0.720982
    17528.483800       0.720561
    17559.262500       0.720150
    17590.149500       0.719748
    17621.145400       0.719356
    17652.250700       0.718972
    17683.466000       0.718596
    17714.791900       0.718228
    17746.228900       0.717867
    17777.777800       0.717514
    17809.439000       0.717166
    17841.213200       0.716824
    17873.101000       0.716488
    17905.103000       0.716157
    17937.219700       0.715830
    17969.451900       0.715506
    18001.800200       0.715187
    18034.265100       0.714869
    18066.847300       0.714554
    18099.547500       0.714241
    18132.366300       0.713929
    18165.304300       0.713617
    18198.362100       0.713306
    18231.540600       0.712993
    18264.840200       0.712680
    18298.261700       0.712364
    18331.805700       0.712046
    18365.472900       0.711725
    18399.264000       0.711401
    18433.179700       0.711072
    18467.220700       0.710738
    18501.387600       0.710398
    18535.681200       0.710053
    18570.102100       0.709700
    18604.651200       0.709340
    18639.329000       0.708971
    18674.136300       0.708594
    18709.073900       0.708207
    18744.142500       0.707810
    18779.342700       0.707402
    18814.675400       0.706982
    18850.141400       0.706549
    18885.741300       0.706104
    18921.475900       0.705645
    18957.346000       0.705171
    18993.352300       0.704682
    19029.495700       0.704177
    19065.776900       0.703655
    19102.196800       0.703116
    19138.756000       0.702559
    19175.455400       0.701983
    19212.295900       0.701387
    19249.278200       0.700770
    19286.403100       0.700132
    19323.671500       0.699473
    19361.084200       0.698790
    19398.642100       0.698085
    19436.346000       0.697355
    19474.196700       0.696599
    19512.195100       0.695819
    19550.342100       0.695011
    19588.638600       0.694176
    19627.085400       0.693314
    19665.683400       0.692422
    19704.433500       0.691501
    19743.336600       0.690549
    19782.393700       0.689566
    19821.605600       0.688551
    19860.973200       0.687504
    19900.497500       0.686422
    19940.179500       0.685307
    19980.020000       0.684157
    20020.020000       0.682971
    20060.180500       0.681748
    20100.502500       0.680488
    20140.986900       0.679190
    20181.634700       0.677853
    20222.446900       0.676477
    20263.424500       0.675060
    20304.568500       0.673602
    20345.880000       0.672102
    20387.359800       0.670560
    20429.009200       0.668975
    20470.829100       0.667346
    20512.820500       0.665672
    20554.984600       0.663952
    20597.322300       0.662187
    20639.834900       0.660374
    20682.523300       0.658515
    20725.388600       0.656607
    20768.432000       0.654650
    20811.654500       0.652644
    20855.057400       0.650587
    20898.641600       0.648480
    20942.408400       0.646322
    20986.358900       0.644111
    21030.494200       0.641848
    21074.815600       0.639531
    21119.324200       0.637161
    21164.021200       0.634736
    21208.907700       0.632257
    21253.985100       0.629722
    21299.254500       0.627130
    21344.717200       0.624482
    21390.374300       0.621778
    21436.227200       0.619015
    21482.277100       0.616195
    21528.525300       0.613316
    21574.973000       0.610378
    21621.621600       0.607380
    21668.472400       0.604323
    21715.526600       0.601206
    21762.785600       0.598028
    21810.250800       0.594789
    21857.923500       0.591489
    21905.805000       0.588127
    21953.896800       0.584704
    22002.200200       0.581218
    22050.716600       0.577670
    22099.447500       0.574060
    22148.394200       0.570386
    22197.558300       0.566650
    22246.941000       0.562850
    22296.544000       0.558988
    22346.368700       0.555062
    22396.416600       0.551072
    22446.689100       0.547019
    22497.187900       0.542902
    22547.914300       0.538722
    22598.870100       0.534479
    22650.056600       0.530172
    22701.475600       0.525801
    22753.128600       0.521367
    22805.017100       0.516871
    22857.142900       0.512311
    22909.507400       0.507689
    22962.112500       0.503004
    23014.959700       0.498258
    23068.050700       0.493449
    23121.387300       0.488579
    23174.971000       0.483648
    23228.803700       0.478656
    23282.887100       0.473604
    23337.222900       0.468493
    23391.812900       0.463322
    23446.658900       0.458093
    23501.762600       0.452806
    23557.126000       0.447461
    23612.750900       0.442060
    23668.639100       0.436604
    23724.792400       0.431092
    23781.212800       0.425526
    23837.902300       0.419907
    23894.862600       0.414235
    23952.095800       0.408513
    24009.603800       0.402739
    24067.388700       0.396917
    24125.452400       0.391046
    24183.796900       0.385129
    24242.424200       0.379166
    24301.336600       0.373158
    24360.535900       0.367107
    24420.024400       0.361014
    24479.804200       0.354881
    24539.877300       0.348710
    24600.246000       0.342501
    24660.912500       0.336256
    24721.878900       0.329978
    24783.147500       0.323667
    24844.720500       0.317325
    24906.600200       0.310955
    24968.789000       0.304559
    25031.289100       0.298138
    25094.102900       0.291693
    25157.232700       0.285229
    25220.681000       0.278746
    25284.450100       0.272247
    25348.542500       0.265734
    25412.960600       0.259209
    25477.707000       0.252676
