 7    ,AATSR Flight Model FPA #2 0.555um channel (AuSpace measuremets).
Number of data points:
255
Wavenumber (cm-1)   Filter response
    16907.685700       0.004040
    16915.150200       0.004760
    16922.621300       0.005080
    16930.099000       0.005000
    16937.583300       0.004960
    16945.074200       0.005070
    16952.571800       0.005670
    16960.076000       0.006800
    16967.586800       0.007080
    16975.104300       0.006440
    16982.628500       0.006690
    16990.159300       0.008070
    16997.696800       0.008360
    17005.241000       0.008000
    17012.791900       0.008920
    17020.349500       0.009700
    17027.913900       0.009700
    17035.484900       0.010390
    17043.062700       0.012170
    17050.647200       0.012400
    17058.238500       0.012070
    17065.836600       0.013240
    17073.441400       0.014980
    17081.053000       0.014950
    17088.671400       0.014760
    17096.296600       0.015490
    17103.928600       0.016770
    17111.567400       0.017420
    17119.213100       0.018940
    17126.865500       0.019630
    17134.524900       0.020580
    17142.191000       0.022790
    17149.864100       0.024680
    17157.544000       0.025560
    17165.230800       0.027020
    17172.924500       0.029400
    17180.625100       0.031150
    17188.332600       0.032310
    17196.047000       0.034390
    17203.768300       0.037410
    17211.496600       0.039740
    17219.231800       0.042230
    17226.974000       0.046240
    17234.723100       0.049660
    17242.479300       0.053210
    17250.242400       0.057320
    17258.012500       0.061980
    17265.789600       0.065670
    17273.573700       0.070400
    17281.364800       0.075650
    17289.163000       0.081460
    17296.968200       0.087700
    17304.780400       0.095720
    17312.599800       0.103720
    17320.426200       0.112170
    17328.259600       0.122750
    17336.100200       0.133860
    17343.947800       0.144140
    17351.802600       0.156260
    17359.664500       0.170490
    17367.533500       0.184460
    17375.409600       0.198700
    17383.292900       0.214340
    17391.183400       0.232210
    17399.081000       0.250480
    17406.985800       0.269990
    17414.897700       0.290010
    17422.816900       0.309170
    17430.743300       0.329900
    17438.676900       0.350280
    17446.617700       0.367900
    17454.565800       0.384790
    17462.521100       0.402840
    17470.483600       0.418630
    17478.453400       0.432230
    17486.430500       0.443910
    17494.414900       0.457830
    17502.406600       0.467560
    17510.405600       0.475870
    17518.411900       0.483160
    17526.425500       0.489690
    17534.446400       0.496080
    17542.474700       0.501390
    17550.510400       0.506600
    17558.553400       0.511910
    17566.603800       0.516770
    17574.661600       0.521570
    17582.726700       0.526060
    17590.799300       0.531020
    17598.879300       0.534930
    17606.966700       0.540020
    17615.061600       0.545900
    17623.163900       0.553500
    17631.273600       0.561170
    17639.390900       0.568440
    17647.515600       0.576290
    17655.647800       0.585080
    17663.787500       0.596150
    17671.934700       0.607720
    17680.089400       0.616810
    17688.251600       0.627480
    17696.421400       0.641750
    17704.598800       0.655150
    17712.783700       0.668470
    17720.976100       0.682440
    17729.176200       0.697380
    17737.383800       0.714340
    17745.599100       0.724230
    17753.822000       0.740510
    17762.052400       0.754920
    17770.290600       0.770920
    17778.536300       0.784670
    17786.789800       0.802010
    17795.050800       0.815750
    17803.319600       0.832580
    17811.596100       0.848680
    17819.880200       0.864520
    17828.172100       0.877160
    17836.471700       0.891340
    17844.779000       0.904090
    17853.094000       0.916250
    17861.416800       0.928320
    17869.747400       0.937680
    17878.085800       0.945310
    17886.431900       0.953940
    17894.785800       0.961190
    17903.147600       0.968760
    17911.517100       0.973820
    17919.894500       0.977290
    17928.279700       0.983380
    17936.672800       0.986110
    17945.073700       0.989200
    17953.482500       0.990800
    17961.899200       0.993180
    17970.323800       0.995680
    17978.756300       0.997600
    17987.196700       0.998400
    17995.645100       0.998130
    18004.101300       0.997570
    18012.565600       0.999330
    18021.037800       1.000000
    18029.517900       0.998690
    18038.006100       0.995580
    18046.502200       0.996000
    18055.006400       0.995240
    18063.518600       0.993480
    18072.038800       0.991520
    18080.567000       0.987910
    18089.103300       0.982210
    18097.647700       0.974080
    18106.200100       0.964020
    18114.760600       0.949690
    18123.329300       0.932660
    18131.906000       0.913340
    18140.490800       0.885300
    18149.083800       0.854440
    18157.685000       0.818610
    18166.294300       0.781720
    18174.911700       0.736900
    18183.537400       0.687470
    18192.171200       0.635400
    18200.813200       0.583400
    18209.463500       0.529080
    18218.121900       0.476970
    18226.788600       0.427540
    18235.463600       0.379090
    18244.146800       0.334440
    18252.838300       0.297210
    18261.538100       0.263050
    18270.246200       0.231900
    18278.962600       0.202680
    18287.687300       0.180230
    18296.420300       0.160160
    18305.161700       0.142430
    18313.911400       0.127120
    18322.669500       0.113010
    18331.436000       0.100270
    18340.210900       0.089940
    18348.994200       0.081530
    18357.785900       0.074000
    18366.586000       0.066870
    18375.394600       0.060200
    18384.211600       0.053860
    18393.037100       0.049160
    18401.871100       0.044990
    18410.713600       0.041410
    18419.564500       0.036920
    18428.424000       0.033490
    18437.292000       0.030760
    18446.168500       0.026730
    18455.053600       0.024100
    18463.947300       0.023450
    18472.849500       0.020980
    18481.760400       0.017580
    18490.679800       0.016350
    18499.607800       0.015940
    18508.544500       0.014340
    18517.489800       0.013160
    18526.443700       0.013610
    18535.406300       0.012250
    18544.377600       0.009420
    18553.357600       0.009110
    18562.346300       0.009620
    18571.343700       0.008290
    18580.349800       0.006830
    18589.364700       0.006790
    18598.388300       0.005670
    18607.420600       0.004630
    18616.461800       0.005140
    18625.511700       0.005990
    18634.570500       0.005210
    18643.638000       0.004940
    18652.714400       0.004390
    18661.799700       0.004380
    18670.893800       0.004580
    18679.996700       0.004770
    18689.108500       0.003730
    18698.229300       0.003710
    18707.358900       0.003310
    18716.497500       0.001480
    18725.645000       0.001810
    18734.801400       0.003600
    18743.966800       0.002410
    18753.141200       0.001200
    18762.324500       0.002250
    18771.516900       0.001610
    18780.718200       0.001000
    18789.928600       0.003200
    18799.148000       0.003410
    18808.376500       0.001910
    18817.614000       0.001940
    18826.860700       0.001660
    18836.116400       0.000910
    18845.381200       0.001590
    18854.655100       0.001550
    18863.938200       0.001350
    18873.230400       0.001000
    18882.531800       0.000120
    18891.842300       0.002250
    18901.162000       0.002390
    18910.491000       0.002030
    18919.829100       0.003300
    18929.176500       0.001890
    18938.533100       0.000200
    18947.899000       0.001780
    18957.274100       0.001140
    18966.658500       0.001250
    18976.052200       0.001660
    18985.455200       0.000710
    18994.867600       0.000330
    19004.289300       0.000000
    19013.720300       0.001340
    19023.160700       0.001270
    19032.610500       0.000770
    19042.069600       0.000270
