15,    channel 15 SRF extracted from SRF_FY-3F_MERSI-III.zip(FY3F_MERSI_SRF_CH15_Pub.txt) (received Nov 2023)
Number of data points:
398
Wavenumber (cm-1)   Filter response
    10015.024500       0.000374
    10020.038100       0.000374
    10025.072700       0.000374
    10030.096300       0.000475
    10035.127000       0.000475
    10040.165700       0.000374
    10045.210500       0.000374
    10050.259300       0.000374
    10055.299100       0.000272
    10060.363200       0.000374
    10065.434400       0.000374
    10070.492400       0.000374
    10075.575900       0.000374
    10080.647200       0.000476
    10085.726700       0.000374
    10090.812300       0.000374
    10095.904000       0.000476
    10101.004000       0.000476
    10106.107000       0.000374
    10111.219400       0.000374
    10116.338900       0.000374
    10121.462600       0.000272
    10126.577200       0.000272
    10131.715300       0.000272
    10136.842300       0.000272
    10141.995000       0.000374
    10147.134500       0.000477
    10152.281200       0.000477
    10157.435200       0.000579
    10162.595400       0.000682
    10167.763000       0.000580
    10172.936900       0.000477
    10178.117000       0.000477
    10183.304600       0.000375
    10188.480800       0.000272
    10193.682000       0.000272
    10198.869800       0.000272
    10204.083700       0.000375
    10209.288400       0.000375
    10214.495200       0.000478
    10219.731400       0.000478
    10224.955100       0.000478
    10230.185300       0.000581
    10235.420800       0.000788
    10240.646000       0.000788
    10245.896400       0.000995
    10251.154300       0.001201
    10256.418700       0.001202
    10261.670500       0.001202
    10266.949900       0.001410
    10272.214700       0.001410
    10277.487000       0.001307
    10282.786900       0.001412
    10288.073300       0.001516
    10293.366100       0.001621
    10298.666500       0.001829
    10303.974500       0.001934
    10309.270900       0.001831
    10314.592000       0.001728
    10319.919600       0.001625
    10325.254800       0.001522
    10330.577400       0.001835
    10335.907700       0.002045
    10341.263800       0.002150
    10346.609300       0.002151
    10351.959400       0.002048
    10357.336400       0.001945
    10362.701800       0.001842
    10368.073900       0.001843
    10373.452600       0.001845
    10378.819700       0.002056
    10384.212800       0.001953
    10389.613600       0.001849
    10395.000700       0.001850
    10400.416000       0.001852
    10405.818600       0.001642
    10411.248500       0.001749
    10416.663400       0.001644
    10422.088300       0.001540
    10427.538500       0.001329
    10432.975800       0.001224
    10438.421000       0.000908
    10443.871900       0.001014
    10449.311000       0.000802
    10454.778700       0.000803
    10460.252100       0.000803
    10465.732400       0.000804
    10471.202000       0.000698
    10476.697000       0.000698
    10482.179200       0.000699
    10487.669300       0.000592
    10493.186000       0.000486
    10498.689900       0.000486
    10504.201700       0.000594
    10509.720400       0.000487
    10515.247100       0.000487
    10520.779600       0.000487
    10526.320200       0.000379
    10531.868900       0.000272
    10537.405600       0.000272
    10542.967000       0.000272
    10548.516500       0.000272
    10554.094200       0.000272
    10559.657600       0.000381
    10565.232500       0.000381
    10570.831200       0.000489
    10576.416800       0.000598
    10582.011700       0.000707
    10587.611400       0.000599
    10593.221500       0.000599
    10598.837500       0.000599
    10604.460600       0.000600
    10610.071700       0.000491
    10615.710100       0.000600
    10621.356800       0.000600
    10626.990300       0.000601
    10632.647900       0.000602
    10638.297900       0.000822
    10643.952800       0.000823
    10649.637500       0.000823
    10655.309000       0.000824
    10660.985400       0.000825
    10666.668900       0.000604
    10672.363100       0.000494
    10678.063400       0.000605
    10683.750400       0.000606
    10689.466300       0.000607
    10695.189500       0.000607
    10700.899300       0.000719
    10706.638100       0.000719
    10712.383100       0.000832
    10718.117100       0.000832
    10723.857100       0.000832
    10729.604500       0.000721
    10735.382300       0.000721
    10741.146600       0.000610
    10746.916000       0.000723
    10752.694000       0.000837
    10758.480400       0.001063
    10764.252200       0.001064
    10770.054600       0.001178
    10775.864400       0.001180
    10781.682800       0.001295
    10787.485400       0.001183
    10793.318600       0.001184
    10799.137200       0.001185
    10804.964400       0.001072
    10810.819000       0.000959
    10816.662300       0.000845
    10822.512000       0.000962
    10828.370300       0.000848
    10834.236200       0.000733
    10840.109600       0.000618
    10845.991700       0.000618
    10851.881400       0.000504
    10857.757400       0.000505
    10863.661100       0.000622
    10869.575900       0.000739
    10875.473400       0.000856
    10881.402300       0.000740
    10887.317500       0.000623
    10893.239100       0.000506
    10899.193300       0.000625
    10905.131400       0.000627
    10911.077100       0.000745
    10917.033000       0.000864
    10922.995300       0.000864
    10928.966500       0.000628
    10934.944300       0.000629
    10940.908300       0.000510
    10946.902700       0.000511
    10952.906100       0.000391
    10958.895700       0.000512
    10964.912300       0.000392
    10970.918600       0.000392
    10976.954400       0.000272
    10982.972800       0.000392
    10989.002500       0.000272
    10995.061900       0.000272
    11001.107400       0.000272
    11007.160700       0.000272
    11013.221900       0.000395
    11019.289800       0.000395
    11025.370500       0.000518
    11031.432300       0.000518
    11037.526400       0.000518
    11043.627200       0.000519
    11049.717700       0.000643
    11055.834400       0.000520
    11061.940800       0.000769
    11068.074700       0.001019
    11074.194700       0.001021
    11080.323800       0.001022
    11086.484300       0.001148
    11092.630800       0.001024
    11098.785300       0.001027
    11104.946600       0.001028
    11111.117300       0.001030
    11117.297300       0.001031
    11123.459400       0.001160
    11129.654400       0.001162
    11135.859900       0.001291
    11142.073700       0.001421
    11148.270800       0.001679
    11154.498400       0.001810
    11160.714300       0.001813
    11166.937100       0.001815
    11173.190600       0.001948
    11179.432300       0.001822
    11185.681100       0.001956
    11191.935500       0.002220
    11198.199500       0.002484
    11204.473000       0.002619
    11210.756000       0.002884
    11217.047400       0.003021
    11223.347100       0.003159
    11229.653800       0.003429
    11235.948700       0.003567
    11242.272200       0.003838
    11248.604000       0.004112
    11254.924000       0.004386
    11261.249800       0.004662
    11267.610700       0.005339
    11273.954600       0.006019
    11280.308200       0.006837
    11286.693200       0.007791
    11293.063700       0.008884
    11299.441400       0.009847
    11305.828900       0.011221
    11312.226200       0.013009
    11318.630700       0.015212
    11325.020600       0.018106
    11331.443500       0.021829
    11337.874900       0.026116
    11344.290500       0.031933
    11350.739100       0.039286
    11357.171800       0.048876
    11363.640200       0.060436
    11370.090200       0.074948
    11376.574600       0.091742
    11383.043200       0.111243
    11389.520300       0.132498
    11396.007500       0.156491
    11402.503400       0.182403
    11409.006600       0.210668
    11415.521200       0.240737
    11422.041900       0.272482
    11428.574000       0.306059
    11435.112300       0.341477
    11441.637100       0.377757
    11448.195600       0.415182
    11454.760300       0.453746
    11461.312800       0.492744
    11467.896500       0.529598
    11474.466700       0.565729
    11481.044400       0.600701
    11487.658700       0.635363
    11494.254200       0.667979
    11500.859900       0.700399
    11507.473200       0.730747
    11514.098100       0.760172
    11520.730700       0.787955
    11527.373500       0.814073
    11534.024000       0.838661
    11540.683600       0.857315
    11547.353400       0.878082
    11554.005700       0.895543
    11560.695000       0.911432
    11567.392000       0.923091
    11574.072700       0.940196
    11580.788000       0.950868
    11587.486900       0.957107
    11594.197500       0.964086
    11600.940200       0.974453
    11607.666400       0.981122
    11614.403200       0.989117
    11621.149100       0.997075
    11627.904300       0.999364
    11634.670000       1.000000
    11641.442200       0.998064
    11648.225000       0.991164
    11655.018400       0.981659
    11661.795300       0.971943
    11668.606000       0.956628
    11675.427300       0.935681
    11682.230700       0.912856
    11689.072100       0.887536
    11695.894100       0.858824
    11702.752900       0.826100
    11709.596400       0.792821
    11716.475400       0.754008
    11723.334900       0.715245
    11730.206700       0.673810
    11737.087800       0.631060
    11743.975700       0.588214
    11750.875800       0.546334
    11757.786800       0.502695
    11764.704500       0.458362
    11771.633100       0.416382
    11778.572700       0.374635
    11785.494100       0.334343
    11792.450000       0.296432
    11799.418400       0.261517
    11806.368500       0.228541
    11813.356100       0.198425
    11820.326800       0.171635
    11827.332300       0.147567
    11834.322300       0.126838
    11841.320600       0.108077
    11848.328600       0.091900
    11855.374400       0.077546
    11862.406100       0.065016
    11869.441800       0.054162
    11876.490200       0.045138
    11883.548400       0.037487
    11890.616300       0.031058
    11897.667200       0.025852
    11904.756200       0.021409
    11911.853700       0.017732
    11918.962500       0.014821
    11926.051300       0.012522
    11933.179900       0.010529
    11940.291400       0.008690
    11947.438400       0.007311
    11954.568300       0.006238
    11961.708200       0.005318
    11968.888100       0.004705
    11976.049300       0.004398
    11983.219200       0.004243
    11990.400500       0.003784
    11997.591800       0.003477
    12004.793300       0.003323
    12012.003400       0.002864
    12019.225000       0.002557
    12026.456800       0.002404
    12033.700100       0.002250
    12040.952200       0.001793
    12048.187000       0.001640
    12055.458000       0.001183
    12062.713100       0.001031
    12070.004600       0.001029
    12077.310700       0.001179
    12084.595100       0.001178
    12091.891100       0.001329
    12099.226700       0.001328
    12106.541900       0.001026
    12113.868900       0.000724
    12121.207700       0.000723
    12128.555400       0.000572
    12135.913500       0.000422
    12143.283500       0.000571
    12150.662400       0.000720
    12158.053200       0.000570
    12165.453100       0.000719
    12172.861900       0.000867
    12180.256100       0.000866
    12187.687500       0.000717
    12195.129400       0.000717
    12202.555100       0.000716
    12210.018200       0.000568
    12217.463500       0.000567
    12224.950800       0.000713
    12232.415900       0.000860
    12239.894600       0.000712
    12247.412400       0.000712
    12254.908000       0.000565
    12262.418700       0.000419
    12269.940200       0.000272
    12277.469300       0.000272
    12285.010800       0.000272
    12292.564500       0.000272
    12300.127500       0.000272
    12307.701400       0.000272
    12315.258800       0.000272
    12322.852800       0.000272
    12330.460800       0.000129
    12338.049200       0.000129
    12345.677500       0.000129
    12353.318200       0.000271
    12360.937900       0.000271
    12368.599100       0.000414
    12376.243800       0.000555
    12383.897900       0.000696
    12391.561400       0.000554
    12399.266800       0.000554
    12406.952500       0.000554
    12414.652400       0.000413
    12422.360200       0.000272
    12430.082300       0.000272
    12437.812500       0.000272
    12445.555400       0.000411
    12453.307900       0.000411
    12461.073200       0.000411
    12468.820200       0.000548
    12476.606400       0.000548
    12484.405400       0.000410
    12492.184600       0.000410
    12500.006300       0.000546
