 2    ,AATSR Flight Model #2 FPA 11um channel (AuSpace measuremets).
Number of data points:
255
Wavenumber (cm-1)   Filter response
      821.598500       0.000710
      822.223900       0.000440
      822.850200       0.000480
      823.477400       0.000570
      824.105700       0.000640
      824.734900       0.000660
      825.365000       0.000770
      825.996100       0.000550
      826.628100       0.000660
      827.261200       0.000470
      827.895200       0.000500
      828.530100       0.000500
      829.166100       0.000720
      829.803000       0.000620
      830.440900       0.000660
      831.079900       0.000520
      831.719700       0.000640
      832.360600       0.000690
      833.002400       0.000740
      833.645300       0.000770
      834.289100       0.000740
      834.933900       0.000840
      835.579700       0.000790
      836.226500       0.000860
      836.874400       0.000830
      837.523200       0.000970
      838.173100       0.000850
      838.823900       0.001000
      839.475800       0.001050
      840.128600       0.001100
      840.782500       0.000970
      841.437400       0.001090
      842.093300       0.001170
      842.750300       0.001370
      843.408300       0.001340
      844.067300       0.001430
      844.727300       0.001350
      845.388400       0.001520
      846.050500       0.001560
      846.713700       0.001510
      847.377800       0.001540
      848.043100       0.001850
      848.709300       0.001860
      849.376600       0.002090
      850.045000       0.002100
      850.714400       0.002200
      851.384900       0.002320
      852.056400       0.002400
      852.729100       0.002630
      853.402700       0.003020
      854.077500       0.003160
      854.753200       0.003540
      855.430100       0.003550
      856.108000       0.004010
      856.787000       0.004360
      857.467100       0.004640
      858.148300       0.004990
      858.830500       0.005410
      859.513800       0.006180
      860.198300       0.006720
      860.883800       0.007750
      861.570400       0.007970
      862.258100       0.008710
      862.946900       0.009660
      863.636800       0.010970
      864.327800       0.012070
      865.020000       0.012850
      865.713200       0.014110
      866.407500       0.015810
      867.102900       0.018450
      867.799600       0.019070
      868.497300       0.020760
      869.196100       0.023590
      869.896000       0.025250
      870.597100       0.028700
      871.299300       0.031720
      872.002600       0.034530
      872.707000       0.037520
      873.412600       0.042500
      874.119400       0.045810
      874.827300       0.049980
      875.536400       0.055610
      876.246600       0.061390
      876.957900       0.071950
      877.670400       0.074050
      878.384000       0.085140
      879.098900       0.090940
      879.814800       0.102020
      880.532000       0.116950
      881.250300       0.126140
      881.969800       0.141100
      882.690400       0.152440
      883.412400       0.169440
      884.135400       0.186280
      884.859600       0.207080
      885.585000       0.223290
      886.311600       0.246820
      887.039400       0.274720
      887.768300       0.298060
      888.498500       0.332860
      889.229900       0.358710
      889.962500       0.390810
      890.696300       0.427060
      891.431300       0.478630
      892.167500       0.505670
      892.905000       0.537180
      893.643600       0.598340
      894.383500       0.628750
      895.124600       0.680940
      895.866900       0.701240
      896.610500       0.746650
      897.355300       0.781370
      898.101300       0.805100
      898.848600       0.834300
      899.597100       0.879930
      900.347000       0.880300
      901.098000       0.909600
      901.850300       0.918380
      902.603800       0.928000
      903.358600       0.950230
      904.114700       0.966960
      904.872000       0.972670
      905.630600       0.993980
      906.390400       0.978160
      907.151600       1.000000
      907.914000       0.973800
      908.677800       0.988300
      909.442800       0.998080
      910.209100       0.991330
      910.976600       0.966480
      911.745500       0.963690
      912.515700       0.949990
      913.287100       0.939050
      914.059900       0.964150
      914.834000       0.948650
      915.609400       0.945870
      916.386100       0.940010
      917.164200       0.937780
      917.943600       0.907730
      918.724200       0.900710
      919.506200       0.892800
      920.289600       0.880040
      921.074300       0.872200
      921.860300       0.890960
      922.647600       0.872980
      923.436300       0.847930
      924.226400       0.862050
      925.017800       0.856340
      925.810600       0.841470
      926.604700       0.836830
      927.400200       0.832450
      928.197100       0.793170
      928.995300       0.825930
      929.794900       0.790700
      930.595900       0.802410
      931.398200       0.807000
      932.202000       0.806610
      933.007100       0.793920
      933.813600       0.784670
      934.621600       0.793950
      935.430900       0.773290
      936.241700       0.760730
      937.053800       0.749760
      937.867300       0.760780
      938.682300       0.762560
      939.498600       0.760270
      940.316400       0.755500
      941.135600       0.740280
      941.956300       0.721790
      942.778400       0.715320
      943.601900       0.718860
      944.426900       0.714670
      945.253300       0.703380
      946.081100       0.692130
      946.910400       0.676750
      947.741200       0.678130
      948.573400       0.657320
      949.407000       0.642080
      950.242200       0.630980
      951.078800       0.613300
      951.916900       0.589470
      952.756500       0.583490
      953.597600       0.547470
      954.440100       0.522650
      955.284100       0.485070
      956.129600       0.458010
      956.976600       0.426350
      957.825100       0.394550
      958.675200       0.371210
      959.526700       0.344710
      960.379700       0.320070
      961.234300       0.287960
      962.090500       0.261870
      962.948100       0.233250
      963.807200       0.211390
      964.667900       0.187230
      965.530100       0.170920
      966.393800       0.151330
      967.259100       0.136010
      968.126000       0.119730
      968.994400       0.104180
      969.864400       0.092300
      970.735900       0.081900
      971.609000       0.071640
      972.483800       0.062810
      973.360000       0.054740
      974.237800       0.047860
      975.117300       0.042010
      975.998300       0.036930
      976.880800       0.032550
      977.765000       0.027960
      978.650800       0.024560
      979.538200       0.021660
      980.427200       0.018730
      981.317900       0.016060
      982.210200       0.013960
      983.104100       0.012070
      983.999600       0.010710
      984.896700       0.009320
      985.795500       0.008180
      986.695900       0.007240
      987.597900       0.006100
      988.501600       0.005350
      989.407000       0.004680
      990.314000       0.004040
      991.222700       0.003460
      992.133200       0.002960
      993.045200       0.002600
      993.958900       0.002210
      994.874300       0.001950
      995.791400       0.001670
      996.710200       0.001420
      997.630600       0.001270
      998.552800       0.001040
      999.476700       0.000890
     1000.402300       0.000820
     1001.329600       0.000730
     1002.258700       0.000620
     1003.189400       0.000530
     1004.121900       0.000420
     1005.056100       0.000360
     1005.992100       0.000310
     1006.929800       0.000270
     1007.869200       0.000270
     1008.810400       0.000230
     1009.753400       0.000160
     1010.698100       0.000170
     1011.644600       0.000140
     1012.593000       0.000100
     1013.543100       0.000100
     1014.494900       0.000090
     1015.448500       0.000010
     1016.403900       0.000070
     1017.361200       0.000030
     1018.320200       0.000000
