1, INSAT-3D Imager  Visible channel (0.55-0.75mu)
Number of data points:
61
Wavenumber (cm-1)   Filter response
    12500.000000       0.001900
    12578.616400       0.003500
    12658.227800       0.007800
    12738.853500       0.019700
    12820.512800       0.047300
    12903.225800       0.105200
    12987.013000       0.238600
    13071.895400       0.528100
    13157.894700       0.604200
    13245.033100       0.595600
    13333.333300       0.632200
    13422.818800       0.644900
    13513.513500       0.684200
    13605.442200       0.816500
    13698.630100       0.931100
    13793.103400       0.932400
    13888.888900       0.955500
    13986.014000       1.000000
    14084.507000       0.991400
    14184.397200       0.966600
    14285.714300       0.992200
    14388.489200       0.994200
    14492.753600       0.943600
    14598.540100       0.942900
    14705.882400       0.919000
    14814.814800       0.885000
    14925.373100       0.934400
    15037.594000       0.946200
    15151.515200       0.915700
    15267.175600       0.924100
    15384.615400       0.969200
    15503.876000       0.948700
    15625.000000       0.953000
    15748.031500       0.959500
    15873.015900       0.909800
    16000.000000       0.909200
    16129.032300       0.907600
    16260.162600       0.848300
    16393.442600       0.884200
    16528.925600       0.854300
    16666.666700       0.808000
    16806.722700       0.821000
    16949.152500       0.751900
    17094.017100       0.774400
    17241.379300       0.773300
    17391.304300       0.732200
    17543.859600       0.709200
    17699.115000       0.531000
    17857.142900       0.414200
    18018.018000       0.233000
    18181.818200       0.127500
    18348.623900       0.081300
    18518.518500       0.042600
    18691.588800       0.024200
    18867.924500       0.012700
    19047.619000       0.006400
    19230.769200       0.003200
    19417.475700       0.001700
    19607.843100       0.000900
    19801.980200       0.000600
    20000.000000       0.000600
