14,   14, MVIRI VIS channel from srf_MET5_1992348_1992349_1801-Release_S10EL_10.dat
Number of data points:
806
Wavenumber (cm-1)   Filter response
     8350.730700       0.000000
     8357.710000       0.000000
     8364.701000       0.000000
     8371.703600       0.000001
     8378.718100       0.000004
     8385.744200       0.000009
     8392.782200       0.000016
     8399.832000       0.000026
     8406.893700       0.000040
     8413.967200       0.000058
     8421.052600       0.000080
     8428.150000       0.000108
     8435.259400       0.000141
     8442.380800       0.000179
     8449.514200       0.000224
     8456.659600       0.000276
     8463.817200       0.000335
     8470.986900       0.000401
     8478.168700       0.000475
     8485.362700       0.000557
     8492.569000       0.000647
     8499.787500       0.000746
     8507.018300       0.000855
     8514.261400       0.000972
     8521.516800       0.001100
     8528.784600       0.001237
     8536.064900       0.001385
     8543.357500       0.001543
     8550.662700       0.001712
     8557.980300       0.001892
     8565.310500       0.002083
     8572.653200       0.002285
     8580.008600       0.002500
     8587.376600       0.002726
     8594.757200       0.002964
     8602.150500       0.003215
     8609.556600       0.003478
     8616.975400       0.003754
     8624.407100       0.004043
     8631.851500       0.004345
     8639.308900       0.004661
     8646.779100       0.004989
     8654.262200       0.005332
     8661.758300       0.005688
     8669.267400       0.006058
     8676.789600       0.006442
     8684.324800       0.006841
     8691.873100       0.007254
     8699.434500       0.007681
     8707.009100       0.008124
     8714.596900       0.008581
     8722.198000       0.009053
     8729.812300       0.009540
     8737.439900       0.010042
     8745.080900       0.010560
     8752.735200       0.011093
     8760.403000       0.011642
     8768.084200       0.012207
     8775.778900       0.012788
     8783.487000       0.013385
     8791.208800       0.013997
     8798.944100       0.014626
     8806.693100       0.015272
     8814.455700       0.015933
     8822.232000       0.016612
     8830.022100       0.017307
     8837.825900       0.018019
     8845.643500       0.018748
     8853.475000       0.019494
     8861.320300       0.020257
     8869.179600       0.021038
     8877.052800       0.021836
     8884.940000       0.022651
     8892.841300       0.023484
     8900.756600       0.024334
     8908.686000       0.025202
     8916.629500       0.026089
     8924.587200       0.026993
     8932.559200       0.027915
     8940.545400       0.028856
     8948.545900       0.029815
     8956.560700       0.030792
     8964.589900       0.031788
     8972.633500       0.032803
     8980.691500       0.033836
     8988.764000       0.034888
     8996.851100       0.035959
     9004.952700       0.037049
     9013.068900       0.038158
     9021.199800       0.039287
     9029.345400       0.040434
     9037.505600       0.041602
     9045.680700       0.042789
     9053.870500       0.043995
     9062.075200       0.045221
     9070.294800       0.046467
     9078.529300       0.047733
     9086.778700       0.049019
     9095.043200       0.050325
     9103.322700       0.051652
     9111.617300       0.052998
     9119.927000       0.054365
     9128.251900       0.055753
     9136.592100       0.057161
     9144.947400       0.058590
     9153.318100       0.060040
     9161.704100       0.061511
     9170.105500       0.063002
     9178.522300       0.064515
     9186.954500       0.066049
     9195.402300       0.067604
     9203.865600       0.069180
     9212.344500       0.070778
     9220.839100       0.072398
     9229.349300       0.074039
     9237.875300       0.075701
     9246.417000       0.077386
     9254.974500       0.079092
     9263.547900       0.080820
     9272.137200       0.082570
     9280.742500       0.084343
     9289.363700       0.086137
     9298.000900       0.087954
     9306.654300       0.089793
     9315.323700       0.091654
     9324.009300       0.093537
     9332.711200       0.095444
     9341.429200       0.097373
     9350.163600       0.099324
     9358.914400       0.101298
     9367.681500       0.103295
     9376.465100       0.105315
     9385.265100       0.107357
     9394.081700       0.109423
     9402.914900       0.111511
     9411.764700       0.113622
     9420.631200       0.115757
     9429.514400       0.117914
     9438.414300       0.120095
     9447.331100       0.122299
     9456.264800       0.124526
     9465.215300       0.126777
     9474.182900       0.129050
     9483.167400       0.131347
     9492.169000       0.133668
     9501.187600       0.136011
     9510.223500       0.138379
     9519.276500       0.140769
     9528.346800       0.143183
     9537.434400       0.145621
     9546.539400       0.148081
     9555.661700       0.150566
     9564.801500       0.153073
     9573.958800       0.155604
     9583.133700       0.158159
     9592.326100       0.160737
     9601.536200       0.163339
     9610.764100       0.165963
     9620.009600       0.168612
     9629.273000       0.171284
     9638.554200       0.173978
     9647.853400       0.176697
     9657.170400       0.179438
     9666.505600       0.182203
     9675.858700       0.184992
     9685.230000       0.187803
     9694.619500       0.190637
     9704.027200       0.193495
     9713.453100       0.196376
     9722.897400       0.199279
     9732.360100       0.202206
     9741.841200       0.205155
     9751.340800       0.208127
     9760.859000       0.211122
     9770.395700       0.214140
     9779.951100       0.217180
     9789.525200       0.220242
     9799.118100       0.223327
     9808.729800       0.226435
     9818.360300       0.229564
     9828.009800       0.232716
     9837.678300       0.235889
     9847.365800       0.239085
     9857.072400       0.242302
     9866.798200       0.245541
     9876.543200       0.248801
     9886.307500       0.252083
     9896.091000       0.255387
     9905.894000       0.258711
     9915.716400       0.262057
     9925.558300       0.265423
     9935.419800       0.268810
     9945.300800       0.272218
     9955.201600       0.275646
     9965.122100       0.279094
     9975.062300       0.282562
     9985.022500       0.286051
     9995.002500       0.289560
    10005.002500       0.293087
    10015.022500       0.296635
    10025.062700       0.300201
    10035.122900       0.303787
    10045.203400       0.307391
    10055.304200       0.311015
    10065.425300       0.314656
    10075.566800       0.318316
    10085.728700       0.321994
    10095.911200       0.325690
    10106.114200       0.329404
    10116.337900       0.333135
    10126.582300       0.336883
    10136.847400       0.340648
    10147.133400       0.344430
    10157.440300       0.348229
    10167.768200       0.352044
    10178.117000       0.355874
    10188.487000       0.359721
    10198.878100       0.363583
    10209.290500       0.367460
    10219.724100       0.371353
    10230.179000       0.375260
    10240.655400       0.379182
    10251.153300       0.383118
    10261.672700       0.387068
    10272.213700       0.391031
    10282.776300       0.395008
    10293.360800       0.398998
    10303.967000       0.403001
    10314.595200       0.407016
    10325.245200       0.411044
    10335.917300       0.415084
    10346.611500       0.419135
    10357.327800       0.423197
    10368.066400       0.427271
    10378.827200       0.431355
    10389.610400       0.435450
    10400.416000       0.439555
    10411.244100       0.443669
    10422.094800       0.447793
    10432.968200       0.451926
    10443.864200       0.456068
    10454.783100       0.460218
    10465.724800       0.464376
    10476.689400       0.468543
    10487.677000       0.472716
    10498.687700       0.476897
    10509.721500       0.481084
    10520.778500       0.485278
    10531.858900       0.489478
    10542.962600       0.493684
    10554.089700       0.497894
    10565.240400       0.502110
    10576.414600       0.506331
    10587.612500       0.510555
    10598.834100       0.514784
    10610.079600       0.519016
    10621.348900       0.523251
    10632.642200       0.527489
    10643.959600       0.531730
    10655.301000       0.535972
    10666.666700       0.540216
    10678.056600       0.544461
    10689.470900       0.548707
    10700.909600       0.552954
    10712.372800       0.557201
    10723.860600       0.561447
    10735.373100       0.565693
    10746.910300       0.569938
    10758.472300       0.574181
    10770.059200       0.578423
    10781.671200       0.582662
    10793.308100       0.586899
    10804.970300       0.591133
    10816.657700       0.595363
    10828.370300       0.599590
    10840.108400       0.603812
    10851.871900       0.608030
    10863.661100       0.612243
    10875.475800       0.616450
    10887.316300       0.620652
    10899.182600       0.624848
    10911.074700       0.629037
    10922.992900       0.633219
    10934.937100       0.637393
    10946.907500       0.641560
    10958.904100       0.645719
    10970.927000       0.649869
    10982.976400       0.654011
    10995.052200       0.658143
    11007.154700       0.662265
    11019.283700       0.666377
    11031.439600       0.670478
    11043.622300       0.674569
    11055.832000       0.678648
    11068.068600       0.682716
    11080.332400       0.686771
    11092.623400       0.690814
    11104.941700       0.694844
    11117.287400       0.698861
    11129.660500       0.702864
    11142.061300       0.706853
    11154.489700       0.710827
    11166.945800       0.714787
    11179.429800       0.718732
    11191.941800       0.722661
    11204.481800       0.726574
    11217.049900       0.730470
    11229.646300       0.734350
    11242.270900       0.738213
    11254.924000       0.742058
    11267.605600       0.745885
    11280.315800       0.749695
    11293.054800       0.753485
    11305.822500       0.757257
    11318.619100       0.761009
    11331.444800       0.764742
    11344.299500       0.768455
    11357.183400       0.772147
    11370.096600       0.775818
    11383.039300       0.779469
    11396.011400       0.783098
    11409.013100       0.786705
    11422.044500       0.790290
    11435.105800       0.793853
    11448.196900       0.797393
    11461.318100       0.800910
    11474.469300       0.804403
    11487.650800       0.807873
    11500.862600       0.811318
    11514.104800       0.814740
    11527.377500       0.818136
    11540.680900       0.821507
    11554.015000       0.824854
    11567.380000       0.828174
    11580.775900       0.831468
    11594.202900       0.834737
    11607.661100       0.837978
    11621.150500       0.841193
    11634.671300       0.844381
    11648.223600       0.847542
    11661.807600       0.850674
    11675.423200       0.853779
    11689.070700       0.856856
    11702.750100       0.859904
    11716.461600       0.862924
    11730.205300       0.865914
    11743.981200       0.868876
    11757.789500       0.871808
    11771.630400       0.874710
    11785.503800       0.877582
    11799.410000       0.880424
    11813.349100       0.883236
    11827.321100       0.886017
    11841.326200       0.888768
    11855.364600       0.891487
    11869.436200       0.894175
    11883.541300       0.896831
    11897.680000       0.899456
    11911.852300       0.902050
    11926.058400       0.904611
    11940.298500       0.907140
    11954.572600       0.909636
    11968.880900       0.912100
    11983.223500       0.914531
    11997.600500       0.916930
    12012.012000       0.919295
    12026.458200       0.921628
    12040.939200       0.923927
    12055.455100       0.926192
    12070.006000       0.928424
    12084.592100       0.930622
    12099.213600       0.932787
    12113.870400       0.934917
    12128.562800       0.937014
    12143.290800       0.939076
    12158.054700       0.941104
    12172.854500       0.943098
    12187.690400       0.945057
    12202.562500       0.946982
    12217.471000       0.948872
    12232.415900       0.950728
    12247.397400       0.952549
    12262.415700       0.954335
    12277.470800       0.956087
    12292.563000       0.957803
    12307.692300       0.959485
    12322.858900       0.961131
    12338.062900       0.962743
    12353.304500       0.964320
    12368.583800       0.965862
    12383.900900       0.967368
    12399.256000       0.968840
    12414.649300       0.970277
    12430.080800       0.971679
    12445.550700       0.973046
    12461.059200       0.974377
    12476.606400       0.975674
    12492.192400       0.976937
    12507.817400       0.978164
    12523.481500       0.979356
    12539.185000       0.980514
    12554.927800       0.981637
    12570.710200       0.982726
    12586.532400       0.983780
    12602.394500       0.984799
    12618.296500       0.985784
    12634.238800       0.986735
    12650.221400       0.987651
    12666.244500       0.988534
    12682.308200       0.989382
    12698.412700       0.990197
    12714.558200       0.990978
    12730.744700       0.991725
    12746.972600       0.992439
    12763.241900       0.993119
    12779.552700       0.993766
    12795.905300       0.994380
    12812.299800       0.994961
    12828.736400       0.995510
    12845.215200       0.996025
    12861.736300       0.996509
    12878.300100       0.996960
    12894.906500       0.997379
    12911.555800       0.997766
    12928.248200       0.998121
    12944.983800       0.998445
    12961.762800       0.998738
    12978.585300       0.998999
    12995.451600       0.999230
    13012.361700       0.999430
    13029.316000       0.999600
    13046.314400       0.999739
    13063.357300       0.999849
    13080.444700       0.999928
    13097.576900       0.999979
    13114.754100       1.000000
    13131.976400       0.999992
    13149.243900       0.999956
    13166.556900       0.999891
    13183.915600       0.999798
    13201.320100       0.999677
    13218.770700       0.999529
    13236.267400       0.999353
    13253.810500       0.999150
    13271.400100       0.998921
    13289.036500       0.998665
    13306.719900       0.998383
    13324.450400       0.998075
    13342.228200       0.997742
    13360.053400       0.997383
    13377.926400       0.997000
    13395.847300       0.996592
    13413.816200       0.996161
    13431.833400       0.995705
    13449.899100       0.995225
    13468.013500       0.994723
    13486.176700       0.994197
    13504.388900       0.993650
    13522.650400       0.993080
    13540.961400       0.992488
    13559.322000       0.991875
    13577.732500       0.991241
    13596.193100       0.990586
    13614.703900       0.989911
    13633.265200       0.989215
    13651.877100       0.988501
    13670.540000       0.987767
    13689.253900       0.987014
    13708.019200       0.986243
    13726.836000       0.985454
    13745.704500       0.984647
    13764.624900       0.983823
    13783.597500       0.982982
    13802.622500       0.982124
    13821.700100       0.981251
    13840.830400       0.980362
    13860.013900       0.979457
    13879.250500       0.978538
    13898.540700       0.977604
    13917.884500       0.976656
    13937.282200       0.975694
    13956.734100       0.974719
    13976.240400       0.973732
    13995.801300       0.972732
    14015.417000       0.971720
    14035.087700       0.970696
    14054.813800       0.969661
    14074.595400       0.968616
    14094.432700       0.967560
    14114.326000       0.966494
    14134.275600       0.965418
    14154.281700       0.964334
    14174.344400       0.963241
    14194.464200       0.962139
    14214.641100       0.961030
    14234.875400       0.959913
    14255.167500       0.958790
    14275.517500       0.957660
    14295.925700       0.956523
    14316.392300       0.955381
    14336.917600       0.954234
    14357.501800       0.953081
    14378.145200       0.951924
    14398.848100       0.950763
    14419.610700       0.949599
    14440.433200       0.948431
    14461.316000       0.947260
    14482.259200       0.946087
    14503.263200       0.944912
    14524.328200       0.943735
    14545.454500       0.942557
    14566.642400       0.941378
    14587.892000       0.940198
    14609.203800       0.939019
    14630.577900       0.937840
    14652.014700       0.936662
    14673.514300       0.935485
    14695.077100       0.934309
    14716.703500       0.933135
    14738.393500       0.931964
    14760.147600       0.930795
    14781.966000       0.929630
    14803.849000       0.928468
    14825.796900       0.927309
    14847.809900       0.926155
    14869.888500       0.925005
    14892.032800       0.923860
    14914.243100       0.922721
    14936.519800       0.921587
    14958.863100       0.920459
    14981.273400       0.919337
    15003.750900       0.918222
    15026.296000       0.917113
    15048.909000       0.916012
    15071.590100       0.914919
    15094.339600       0.913833
    15117.158000       0.912756
    15140.045400       0.911687
    15163.002300       0.910627
    15186.028900       0.909577
    15209.125500       0.908535
    15232.292500       0.907504
    15255.530100       0.906482
    15278.838800       0.905470
    15302.218800       0.904470
    15325.670500       0.903479
    15349.194200       0.902500
    15372.790200       0.901533
    15396.458800       0.900576
    15420.200500       0.899632
    15444.015400       0.898699
    15467.904100       0.897779
    15491.866800       0.896872
    15515.903800       0.895976
    15540.015500       0.895094
    15564.202300       0.894225
    15588.464500       0.893369
    15612.802500       0.892527
    15637.216600       0.891698
    15661.707100       0.890883
    15686.274500       0.890082
    15710.919100       0.889295
    15735.641200       0.888522
    15760.441300       0.887764
    15785.319700       0.887020
    15810.276700       0.886290
    15835.312700       0.885576
    15860.428200       0.884876
    15885.623500       0.884191
    15910.899000       0.883521
    15936.255000       0.882866
    15961.691900       0.882227
    15987.210200       0.881602
    16012.810200       0.880993
    16038.492400       0.880399
    16064.257000       0.879821
    16090.104600       0.879258
    16116.035500       0.878710
    16142.050000       0.878177
    16168.148700       0.877660
    16194.332000       0.877159
    16220.600200       0.876672
    16246.953700       0.876201
    16273.393000       0.875745
    16299.918500       0.875305
    16326.530600       0.874879
    16353.229800       0.874469
    16380.016400       0.874073
    16406.890900       0.873693
    16433.853700       0.873327
    16460.905300       0.872976
    16488.046200       0.872640
    16515.276600       0.872317
    16542.597200       0.872010
    16570.008300       0.871716
    16597.510400       0.871436
    16625.103900       0.871170
    16652.789300       0.870918
    16680.567100       0.870679
    16708.437800       0.870453
    16736.401700       0.870240
    16764.459300       0.870040
    16792.611300       0.869852
    16820.857900       0.869677
    16849.199700       0.869513
    16877.637100       0.869362
    16906.170800       0.869222
    16934.801000       0.869093
    16963.528400       0.868974
    16992.353400       0.868867
    17021.276600       0.868769
    17050.298400       0.868682
    17079.419300       0.868604
    17108.639900       0.868535
    17137.960600       0.868475
    17167.382000       0.868423
    17196.904600       0.868379
    17226.528900       0.868343
    17256.255400       0.868314
    17286.084700       0.868292
    17316.017300       0.868277
    17346.053800       0.868267
    17376.194600       0.868262
    17406.440400       0.868263
    17436.791600       0.868268
    17467.248900       0.868277
    17497.812800       0.868290
    17528.483800       0.868306
    17559.262500       0.868324
    17590.149500       0.868344
    17621.145400       0.868366
    17652.250700       0.868388
    17683.466000       0.868411
    17714.791900       0.868433
    17746.228900       0.868455
    17777.777800       0.868475
    17809.439000       0.868493
    17841.213200       0.868509
    17873.101000       0.868521
    17905.103000       0.868529
    17937.219700       0.868533
    17969.451900       0.868531
    18001.800200       0.868524
    18034.265100       0.868510
    18066.847300       0.868489
    18099.547500       0.868460
    18132.366300       0.868422
    18165.304300       0.868375
    18198.362100       0.868317
    18231.540600       0.868249
    18264.840200       0.868170
    18298.261700       0.868078
    18331.805700       0.867973
    18365.472900       0.867854
    18399.264000       0.867721
    18433.179700       0.867572
    18467.220700       0.867407
    18501.387600       0.867225
    18535.681200       0.867026
    18570.102100       0.866808
    18604.651200       0.866570
    18639.329000       0.866312
    18674.136300       0.866034
    18709.073900       0.865733
    18744.142500       0.865409
    18779.342700       0.865062
    18814.675400       0.864690
    18850.141400       0.864293
    18885.741300       0.863870
    18921.475900       0.863420
    18957.346000       0.862941
    18993.352300       0.862434
    19029.495700       0.861897
    19065.776900       0.861329
    19102.196800       0.860730
    19138.756000       0.860098
    19175.455400       0.859432
    19212.295900       0.858732
    19249.278200       0.857997
    19286.403100       0.857226
    19323.671500       0.856417
    19361.084200       0.855570
    19398.642100       0.854684
    19436.346000       0.853758
    19474.196700       0.852791
    19512.195100       0.851782
    19550.342100       0.850731
    19588.638600       0.849635
    19627.085400       0.848494
    19665.683400       0.847308
    19704.433500       0.846075
    19743.336600       0.844794
    19782.393700       0.843465
    19821.605600       0.842086
    19860.973200       0.840656
    19900.497500       0.839175
    19940.179500       0.837641
    19980.020000       0.836054
    20020.020000       0.834412
    20060.180500       0.832715
    20100.502500       0.830961
    20140.986900       0.829150
    20181.634700       0.827280
    20222.446900       0.825352
    20263.424500       0.823363
    20304.568500       0.821313
    20345.880000       0.819201
    20387.359800       0.817026
    20429.009200       0.814786
    20470.829100       0.812482
    20512.820500       0.810112
    20554.984600       0.807676
    20597.322300       0.805171
    20639.834900       0.802598
    20682.523300       0.799956
    20725.388600       0.797243
    20768.432000       0.794458
    20811.654500       0.791602
    20855.057400       0.788673
    20898.641600       0.785669
    20942.408400       0.782591
    20986.358900       0.779438
    21030.494200       0.776207
    21074.815600       0.772900
    21119.324200       0.769515
    21164.021200       0.766050
    21208.907700       0.762507
    21253.985100       0.758882
    21299.254500       0.755177
    21344.717200       0.751389
    21390.374300       0.747519
    21436.227200       0.743565
    21482.277100       0.739527
    21528.525300       0.735404
    21574.973000       0.731196
    21621.621600       0.726902
    21668.472400       0.722520
    21715.526600       0.718052
    21762.785600       0.713495
    21810.250800       0.708849
    21857.923500       0.704115
    21905.805000       0.699290
    21953.896800       0.694375
    22002.200200       0.689369
    22050.716600       0.684271
    22099.447500       0.679082
    22148.394200       0.673800
    22197.558300       0.668426
    22246.941000       0.662958
    22296.544000       0.657397
    22346.368700       0.651742
    22396.416600       0.645992
    22446.689100       0.640148
    22497.187900       0.634208
    22547.914300       0.628174
    22598.870100       0.622044
    22650.056600       0.615818
    22701.475600       0.609497
    22753.128600       0.603079
    22805.017100       0.596565
    22857.142900       0.589955
    22909.507400       0.583248
    22962.112500       0.576445
    23014.959700       0.569546
    23068.050700       0.562550
    23121.387300       0.555458
    23174.971000       0.548269
    23228.803700       0.540984
    23282.887100       0.533604
    23337.222900       0.526127
    23391.812900       0.518554
    23446.658900       0.510886
    23501.762600       0.503123
    23557.126000       0.495265
    23612.750900       0.487313
    23668.639100       0.479267
    23724.792400       0.471127
    23781.212800       0.462894
    23837.902300       0.454568
    23894.862600       0.446150
    23952.095800       0.437641
    24009.603800       0.429040
    24067.388700       0.420350
    24125.452400       0.411570
    24183.796900       0.402702
    24242.424200       0.393746
    24301.336600       0.384702
    24360.535900       0.375573
    24420.024400       0.366358
    24479.804200       0.357060
    24539.877300       0.347678
    24600.246000       0.338214
    24660.912500       0.328670
    24721.878900       0.319046
    24783.147500       0.309343
    24844.720500       0.299563
    24906.600200       0.289707
    24968.789000       0.279778
    25031.289100       0.269775
    25094.102900       0.259701
    25157.232700       0.249557
    25220.681000       0.239344
    25284.450100       0.229065
    25348.542500       0.218722
    25412.960600       0.208315
    25477.707000       0.197847
