61,   61, MVIRI VIS channel from srf_MET5_1998303_1998304_1801-Release_S10EL_10.dat
Number of data points:
806
Wavenumber (cm-1)   Filter response
     8350.730700       0.000000
     8357.710000       0.000000
     8364.701000       0.000000
     8371.703600       0.000002
     8378.718100       0.000004
     8385.744200       0.000009
     8392.782200       0.000016
     8399.832000       0.000027
     8406.893700       0.000041
     8413.967200       0.000060
     8421.052600       0.000083
     8428.150000       0.000111
     8435.259400       0.000145
     8442.380800       0.000185
     8449.514200       0.000231
     8456.659600       0.000284
     8463.817200       0.000345
     8470.986900       0.000413
     8478.168700       0.000489
     8485.362700       0.000573
     8492.569000       0.000667
     8499.787500       0.000769
     8507.018300       0.000880
     8514.261400       0.001002
     8521.516800       0.001133
     8528.784600       0.001274
     8536.064900       0.001426
     8543.357500       0.001589
     8550.662700       0.001763
     8557.980300       0.001948
     8565.310500       0.002144
     8572.653200       0.002353
     8580.008600       0.002573
     8587.376600       0.002806
     8594.757200       0.003052
     8602.150500       0.003309
     8609.556600       0.003580
     8616.975400       0.003864
     8624.407100       0.004161
     8631.851500       0.004472
     8639.308900       0.004796
     8646.779100       0.005134
     8654.262200       0.005486
     8661.758300       0.005853
     8669.267400       0.006233
     8676.789600       0.006628
     8684.324800       0.007038
     8691.873100       0.007463
     8699.434500       0.007902
     8707.009100       0.008357
     8714.596900       0.008826
     8722.198000       0.009311
     8729.812300       0.009812
     8737.439900       0.010328
     8745.080900       0.010860
     8752.735200       0.011408
     8760.403000       0.011972
     8768.084200       0.012552
     8775.778900       0.013149
     8783.487000       0.013761
     8791.208800       0.014391
     8798.944100       0.015037
     8806.693100       0.015699
     8814.455700       0.016379
     8822.232000       0.017076
     8830.022100       0.017789
     8837.825900       0.018520
     8845.643500       0.019268
     8853.475000       0.020034
     8861.320300       0.020817
     8869.179600       0.021618
     8877.052800       0.022437
     8884.940000       0.023273
     8892.841300       0.024128
     8900.756600       0.025000
     8908.686000       0.025891
     8916.629500       0.026800
     8924.587200       0.027727
     8932.559200       0.028673
     8940.545400       0.029638
     8948.545900       0.030621
     8956.560700       0.031623
     8964.589900       0.032645
     8972.633500       0.033684
     8980.691500       0.034744
     8988.764000       0.035822
     8996.851100       0.036920
     9004.952700       0.038037
     9013.068900       0.039174
     9021.199800       0.040330
     9029.345400       0.041506
     9037.505600       0.042702
     9045.680700       0.043918
     9053.870500       0.045154
     9062.075200       0.046410
     9070.294800       0.047686
     9078.529300       0.048982
     9086.778700       0.050299
     9095.043200       0.051637
     9103.322700       0.052995
     9111.617300       0.054374
     9119.927000       0.055773
     9128.251900       0.057194
     9136.592100       0.058635
     9144.947400       0.060097
     9153.318100       0.061581
     9161.704100       0.063086
     9170.105500       0.064612
     9178.522300       0.066160
     9186.954500       0.067729
     9195.402300       0.069320
     9203.865600       0.070932
     9212.344500       0.072567
     9220.839100       0.074223
     9229.349300       0.075901
     9237.875300       0.077601
     9246.417000       0.079323
     9254.974500       0.081068
     9263.547900       0.082835
     9272.137200       0.084623
     9280.742500       0.086435
     9289.363700       0.088269
     9298.000900       0.090125
     9306.654300       0.092004
     9315.323700       0.093906
     9324.009300       0.095831
     9332.711200       0.097778
     9341.429200       0.099748
     9350.163600       0.101741
     9358.914400       0.103757
     9367.681500       0.105797
     9376.465100       0.107859
     9385.265100       0.109944
     9394.081700       0.112053
     9402.914900       0.114185
     9411.764700       0.116340
     9420.631200       0.118519
     9429.514400       0.120721
     9438.414300       0.122946
     9447.331100       0.125195
     9456.264800       0.127468
     9465.215300       0.129764
     9474.182900       0.132083
     9483.167400       0.134426
     9492.169000       0.136792
     9501.187600       0.139183
     9510.223500       0.141597
     9519.276500       0.144034
     9528.346800       0.146495
     9537.434400       0.148980
     9546.539400       0.151489
     9555.661700       0.154021
     9564.801500       0.156576
     9573.958800       0.159156
     9583.133700       0.161759
     9592.326100       0.164386
     9601.536200       0.167036
     9610.764100       0.169710
     9620.009600       0.172408
     9629.273000       0.175129
     9638.554200       0.177873
     9647.853400       0.180642
     9657.170400       0.183433
     9666.505600       0.186248
     9675.858700       0.189087
     9685.230000       0.191948
     9694.619500       0.194833
     9704.027200       0.197741
     9713.453100       0.200673
     9722.897400       0.203627
     9732.360100       0.206605
     9741.841200       0.209605
     9751.340800       0.212628
     9760.859000       0.215674
     9770.395700       0.218743
     9779.951100       0.221835
     9789.525200       0.224949
     9799.118100       0.228085
     9808.729800       0.231244
     9818.360300       0.234425
     9828.009800       0.237628
     9837.678300       0.240853
     9847.365800       0.244101
     9857.072400       0.247369
     9866.798200       0.250660
     9876.543200       0.253972
     9886.307500       0.257306
     9896.091000       0.260661
     9905.894000       0.264036
     9915.716400       0.267434
     9925.558300       0.270851
     9935.419800       0.274290
     9945.300800       0.277749
     9955.201600       0.281228
     9965.122100       0.284728
     9975.062300       0.288247
     9985.022500       0.291787
     9995.002500       0.295346
    10005.002500       0.298925
    10015.022500       0.302523
    10025.062700       0.306140
    10035.122900       0.309776
    10045.203400       0.313430
    10055.304200       0.317104
    10065.425300       0.320795
    10075.566800       0.324505
    10085.728700       0.328232
    10095.911200       0.331978
    10106.114200       0.335740
    10116.337900       0.339520
    10126.582300       0.343317
    10136.847400       0.347131
    10147.133400       0.350961
    10157.440300       0.354807
    10167.768200       0.358670
    10178.117000       0.362548
    10188.487000       0.366441
    10198.878100       0.370350
    10209.290500       0.374274
    10219.724100       0.378213
    10230.179000       0.382166
    10240.655400       0.386133
    10251.153300       0.390114
    10261.672700       0.394109
    10272.213700       0.398117
    10282.776300       0.402138
    10293.360800       0.406172
    10303.967000       0.410218
    10314.595200       0.414276
    10325.245200       0.418346
    10335.917300       0.422428
    10346.611500       0.426521
    10357.327800       0.430624
    10368.066400       0.434739
    10378.827200       0.438863
    10389.610400       0.442998
    10400.416000       0.447142
    10411.244100       0.451295
    10422.094800       0.455458
    10432.968200       0.459629
    10443.864200       0.463808
    10454.783100       0.467995
    10465.724800       0.472190
    10476.689400       0.476392
    10487.677000       0.480601
    10498.687700       0.484816
    10509.721500       0.489037
    10520.778500       0.493265
    10531.858900       0.497497
    10542.962600       0.501735
    10554.089700       0.505978
    10565.240400       0.510225
    10576.414600       0.514476
    10587.612500       0.518730
    10598.834100       0.522988
    10610.079600       0.527249
    10621.348900       0.531512
    10632.642200       0.535777
    10643.959600       0.540044
    10655.301000       0.544312
    10666.666700       0.548581
    10678.056600       0.552851
    10689.470900       0.557121
    10700.909600       0.561391
    10712.372800       0.565660
    10723.860600       0.569928
    10735.373100       0.574195
    10746.910300       0.578460
    10758.472300       0.582723
    10770.059200       0.586983
    10781.671200       0.591240
    10793.308100       0.595494
    10804.970300       0.599744
    10816.657700       0.603990
    10828.370300       0.608231
    10840.108400       0.612467
    10851.871900       0.616698
    10863.661100       0.620924
    10875.475800       0.625143
    10887.316300       0.629355
    10899.182600       0.633560
    10911.074700       0.637758
    10922.992900       0.641948
    10934.937100       0.646130
    10946.907500       0.650304
    10958.904100       0.654468
    10970.927000       0.658623
    10982.976400       0.662768
    10995.052200       0.666903
    11007.154700       0.671027
    11019.283700       0.675140
    11031.439600       0.679242
    11043.622300       0.683332
    11055.832000       0.687409
    11068.068600       0.691474
    11080.332400       0.695526
    11092.623400       0.699565
    11104.941700       0.703590
    11117.287400       0.707600
    11129.660500       0.711596
    11142.061300       0.715577
    11154.489700       0.719543
    11166.945800       0.723493
    11179.429800       0.727426
    11191.941800       0.731344
    11204.481800       0.735244
    11217.049900       0.739127
    11229.646300       0.742992
    11242.270900       0.746839
    11254.924000       0.750668
    11267.605600       0.754478
    11280.315800       0.758268
    11293.054800       0.762040
    11305.822500       0.765791
    11318.619100       0.769522
    11331.444800       0.773232
    11344.299500       0.776922
    11357.183400       0.780590
    11370.096600       0.784236
    11383.039300       0.787861
    11396.011400       0.791462
    11409.013100       0.795042
    11422.044500       0.798598
    11435.105800       0.802130
    11448.196900       0.805639
    11461.318100       0.809124
    11474.469300       0.812585
    11487.650800       0.816020
    11500.862600       0.819431
    11514.104800       0.822816
    11527.377500       0.826176
    11540.680900       0.829510
    11554.015000       0.832817
    11567.380000       0.836098
    11580.775900       0.839352
    11594.202900       0.842578
    11607.661100       0.845778
    11621.150500       0.848949
    11634.671300       0.852092
    11648.223600       0.855208
    11661.807600       0.858294
    11675.423200       0.861352
    11689.070700       0.864380
    11702.750100       0.867379
    11716.461600       0.870349
    11730.205300       0.873289
    11743.981200       0.876198
    11757.789500       0.879077
    11771.630400       0.881926
    11785.503800       0.884743
    11799.410000       0.887530
    11813.349100       0.890286
    11827.321100       0.893009
    11841.326200       0.895701
    11855.364600       0.898362
    11869.436200       0.900990
    11883.541300       0.903586
    11897.680000       0.906149
    11911.852300       0.908680
    11926.058400       0.911177
    11940.298500       0.913642
    11954.572600       0.916074
    11968.880900       0.918472
    11983.223500       0.920836
    11997.600500       0.923167
    12012.012000       0.925464
    12026.458200       0.927727
    12040.939200       0.929956
    12055.455100       0.932151
    12070.006000       0.934311
    12084.592100       0.936437
    12099.213600       0.938529
    12113.870400       0.940585
    12128.562800       0.942607
    12143.290800       0.944594
    12158.054700       0.946546
    12172.854500       0.948463
    12187.690400       0.950344
    12202.562500       0.952191
    12217.471000       0.954002
    12232.415900       0.955778
    12247.397400       0.957518
    12262.415700       0.959223
    12277.470800       0.960893
    12292.563000       0.962527
    12307.692300       0.964125
    12322.858900       0.965688
    12338.062900       0.967215
    12353.304500       0.968707
    12368.583800       0.970163
    12383.900900       0.971583
    12399.256000       0.972968
    12414.649300       0.974317
    12430.080800       0.975631
    12445.550700       0.976909
    12461.059200       0.978152
    12476.606400       0.979359
    12492.192400       0.980530
    12507.817400       0.981667
    12523.481500       0.982768
    12539.185000       0.983833
    12554.927800       0.984864
    12570.710200       0.985859
    12586.532400       0.986819
    12602.394500       0.987745
    12618.296500       0.988635
    12634.238800       0.989491
    12650.221400       0.990312
    12666.244500       0.991099
    12682.308200       0.991851
    12698.412700       0.992568
    12714.558200       0.993252
    12730.744700       0.993902
    12746.972600       0.994517
    12763.241900       0.995099
    12779.552700       0.995647
    12795.905300       0.996162
    12812.299800       0.996644
    12828.736400       0.997092
    12845.215200       0.997507
    12861.736300       0.997890
    12878.300100       0.998240
    12894.906500       0.998558
    12911.555800       0.998843
    12928.248200       0.999097
    12944.983800       0.999319
    12961.762800       0.999509
    12978.585300       0.999668
    12995.451600       0.999796
    13012.361700       0.999892
    13029.316000       0.999959
    13046.314400       0.999994
    13063.357300       1.000000
    13080.444700       0.999976
    13097.576900       0.999922
    13114.754100       0.999838
    13131.976400       0.999726
    13149.243900       0.999585
    13166.556900       0.999415
    13183.915600       0.999216
    13201.320100       0.998990
    13218.770700       0.998736
    13236.267400       0.998455
    13253.810500       0.998146
    13271.400100       0.997811
    13289.036500       0.997449
    13306.719900       0.997061
    13324.450400       0.996647
    13342.228200       0.996207
    13360.053400       0.995743
    13377.926400       0.995253
    13395.847300       0.994738
    13413.816200       0.994200
    13431.833400       0.993637
    13449.899100       0.993051
    13468.013500       0.992442
    13486.176700       0.991810
    13504.388900       0.991155
    13522.650400       0.990478
    13540.961400       0.989780
    13559.322000       0.989060
    13577.732500       0.988319
    13596.193100       0.987557
    13614.703900       0.986775
    13633.265200       0.985973
    13651.877100       0.985151
    13670.540000       0.984311
    13689.253900       0.983451
    13708.019200       0.982573
    13726.836000       0.981678
    13745.704500       0.980764
    13764.624900       0.979833
    13783.597500       0.978886
    13802.622500       0.977922
    13821.700100       0.976942
    13840.830400       0.975946
    13860.013900       0.974935
    13879.250500       0.973910
    13898.540700       0.972870
    13917.884500       0.971816
    13937.282200       0.970748
    13956.734100       0.969668
    13976.240400       0.968574
    13995.801300       0.967468
    14015.417000       0.966351
    14035.087700       0.965222
    14054.813800       0.964081
    14074.595400       0.962930
    14094.432700       0.961769
    14114.326000       0.960598
    14134.275600       0.959418
    14154.281700       0.958228
    14174.344400       0.957030
    14194.464200       0.955824
    14214.641100       0.954610
    14234.875400       0.953389
    14255.167500       0.952161
    14275.517500       0.950927
    14295.925700       0.949686
    14316.392300       0.948440
    14336.917600       0.947188
    14357.501800       0.945932
    14378.145200       0.944671
    14398.848100       0.943407
    14419.610700       0.942138
    14440.433200       0.940867
    14461.316000       0.939593
    14482.259200       0.938316
    14503.263200       0.937038
    14524.328200       0.935758
    14545.454500       0.934477
    14566.642400       0.933195
    14587.892000       0.931913
    14609.203800       0.930631
    14630.577900       0.929349
    14652.014700       0.928068
    14673.514300       0.926788
    14695.077100       0.925510
    14716.703500       0.924234
    14738.393500       0.922960
    14760.147600       0.921689
    14781.966000       0.920422
    14803.849000       0.919157
    14825.796900       0.917897
    14847.809900       0.916640
    14869.888500       0.915388
    14892.032800       0.914141
    14914.243100       0.912900
    14936.519800       0.911664
    14958.863100       0.910433
    14981.273400       0.909210
    15003.750900       0.907992
    15026.296000       0.906782
    15048.909000       0.905579
    15071.590100       0.904383
    15094.339600       0.903196
    15117.158000       0.902016
    15140.045400       0.900845
    15163.002300       0.899683
    15186.028900       0.898530
    15209.125500       0.897386
    15232.292500       0.896252
    15255.530100       0.895128
    15278.838800       0.894014
    15302.218800       0.892910
    15325.670500       0.891817
    15349.194200       0.890735
    15372.790200       0.889665
    15396.458800       0.888605
    15420.200500       0.887558
    15444.015400       0.886522
    15467.904100       0.885498
    15491.866800       0.884487
    15515.903800       0.883488
    15540.015500       0.882502
    15564.202300       0.881529
    15588.464500       0.880569
    15612.802500       0.879622
    15637.216600       0.878689
    15661.707100       0.877769
    15686.274500       0.876862
    15710.919100       0.875970
    15735.641200       0.875092
    15760.441300       0.874228
    15785.319700       0.873378
    15810.276700       0.872543
    15835.312700       0.871722
    15860.428200       0.870915
    15885.623500       0.870123
    15910.899000       0.869346
    15936.255000       0.868584
    15961.691900       0.867837
    15987.210200       0.867104
    16012.810200       0.866387
    16038.492400       0.865684
    16064.257000       0.864997
    16090.104600       0.864324
    16116.035500       0.863667
    16142.050000       0.863024
    16168.148700       0.862397
    16194.332000       0.861785
    16220.600200       0.861187
    16246.953700       0.860605
    16273.393000       0.860037
    16299.918500       0.859485
    16326.530600       0.858947
    16353.229800       0.858424
    16380.016400       0.857915
    16406.890900       0.857421
    16433.853700       0.856941
    16460.905300       0.856476
    16488.046200       0.856024
    16515.276600       0.855587
    16542.597200       0.855164
    16570.008300       0.854754
    16597.510400       0.854358
    16625.103900       0.853975
    16652.789300       0.853605
    16680.567100       0.853249
    16708.437800       0.852905
    16736.401700       0.852574
    16764.459300       0.852255
    16792.611300       0.851948
    16820.857900       0.851653
    16849.199700       0.851369
    16877.637100       0.851097
    16906.170800       0.850836
    16934.801000       0.850585
    16963.528400       0.850345
    16992.353400       0.850115
    17021.276600       0.849895
    17050.298400       0.849685
    17079.419300       0.849483
    17108.639900       0.849290
    17137.960600       0.849106
    17167.382000       0.848930
    17196.904600       0.848761
    17226.528900       0.848599
    17256.255400       0.848445
    17286.084700       0.848296
    17316.017300       0.848154
    17346.053800       0.848017
    17376.194600       0.847886
    17406.440400       0.847759
    17436.791600       0.847636
    17467.248900       0.847517
    17497.812800       0.847401
    17528.483800       0.847288
    17559.262500       0.847177
    17590.149500       0.847067
    17621.145400       0.846959
    17652.250700       0.846852
    17683.466000       0.846744
    17714.791900       0.846636
    17746.228900       0.846527
    17777.777800       0.846416
    17809.439000       0.846303
    17841.213200       0.846187
    17873.101000       0.846068
    17905.103000       0.845945
    17937.219700       0.845817
    17969.451900       0.845684
    18001.800200       0.845544
    18034.265100       0.845398
    18066.847300       0.845245
    18099.547500       0.845084
    18132.366300       0.844914
    18165.304300       0.844735
    18198.362100       0.844546
    18231.540600       0.844346
    18264.840200       0.844135
    18298.261700       0.843911
    18331.805700       0.843675
    18365.472900       0.843425
    18399.264000       0.843161
    18433.179700       0.842881
    18467.220700       0.842586
    18501.387600       0.842274
    18535.681200       0.841944
    18570.102100       0.841597
    18604.651200       0.841230
    18639.329000       0.840843
    18674.136300       0.840436
    18709.073900       0.840008
    18744.142500       0.839557
    18779.342700       0.839083
    18814.675400       0.838585
    18850.141400       0.838063
    18885.741300       0.837515
    18921.475900       0.836941
    18957.346000       0.836339
    18993.352300       0.835709
    19029.495700       0.835051
    19065.776900       0.834362
    19102.196800       0.833643
    19138.756000       0.832892
    19175.455400       0.832109
    19212.295900       0.831292
    19249.278200       0.830441
    19286.403100       0.829555
    19323.671500       0.828633
    19361.084200       0.827675
    19398.642100       0.826678
    19436.346000       0.825643
    19474.196700       0.824568
    19512.195100       0.823453
    19550.342100       0.822296
    19588.638600       0.821097
    19627.085400       0.819855
    19665.683400       0.818569
    19704.433500       0.817237
    19743.336600       0.815860
    19782.393700       0.814436
    19821.605600       0.812964
    19860.973200       0.811444
    19900.497500       0.809874
    19940.179500       0.808253
    19980.020000       0.806582
    20020.020000       0.804857
    20060.180500       0.803080
    20100.502500       0.801249
    20140.986900       0.799363
    20181.634700       0.797420
    20222.446900       0.795422
    20263.424500       0.793365
    20304.568500       0.791250
    20345.880000       0.789076
    20387.359800       0.786841
    20429.009200       0.784545
    20470.829100       0.782188
    20512.820500       0.779767
    20554.984600       0.777283
    20597.322300       0.774734
    20639.834900       0.772120
    20682.523300       0.769440
    20725.388600       0.766692
    20768.432000       0.763877
    20811.654500       0.760993
    20855.057400       0.758040
    20898.641600       0.755016
    20942.408400       0.751922
    20986.358900       0.748755
    21030.494200       0.745516
    21074.815600       0.742204
    21119.324200       0.738818
    21164.021200       0.735357
    21208.907700       0.731820
    21253.985100       0.728208
    21299.254500       0.724518
    21344.717200       0.720751
    21390.374300       0.716906
    21436.227200       0.712982
    21482.277100       0.708978
    21528.525300       0.704894
    21574.973000       0.700730
    21621.621600       0.696484
    21668.472400       0.692156
    21715.526600       0.687746
    21762.785600       0.683253
    21810.250800       0.678677
    21857.923500       0.674016
    21905.805000       0.669271
    21953.896800       0.664441
    22002.200200       0.659525
    22050.716600       0.654524
    22099.447500       0.649436
    22148.394200       0.644262
    22197.558300       0.639001
    22246.941000       0.633653
    22296.544000       0.628216
    22346.368700       0.622692
    22396.416600       0.617080
    22446.689100       0.611379
    22497.187900       0.605589
    22547.914300       0.599711
    22598.870100       0.593743
    22650.056600       0.587686
    22701.475600       0.581540
    22753.128600       0.575304
    22805.017100       0.568978
    22857.142900       0.562563
    22909.507400       0.556059
    22962.112500       0.549465
    23014.959700       0.542781
    23068.050700       0.536008
    23121.387300       0.529145
    23174.971000       0.522193
    23228.803700       0.515153
    23282.887100       0.508023
    23337.222900       0.500804
    23391.812900       0.493498
    23446.658900       0.486103
    23501.762600       0.478620
    23557.126000       0.471050
    23612.750900       0.463393
    23668.639100       0.455650
    23724.792400       0.447820
    23781.212800       0.439905
    23837.902300       0.431905
    23894.862600       0.423820
    23952.095800       0.415652
    24009.603800       0.407401
    24067.388700       0.399067
    24125.452400       0.390651
    24183.796900       0.382155
    24242.424200       0.373579
    24301.336600       0.364923
    24360.535900       0.356189
    24420.024400       0.347379
    24479.804200       0.338491
    24539.877300       0.329529
    24600.246000       0.320492
    24660.912500       0.311383
    24721.878900       0.302202
    24783.147500       0.292950
    24844.720500       0.283629
    24906.600200       0.274239
    24968.789000       0.264784
    25031.289100       0.255263
    25094.102900       0.245679
    25157.232700       0.236033
    25220.681000       0.226325
    25284.450100       0.216560
    25348.542500       0.206737
    25412.960600       0.196858
    25477.707000       0.186926
