  10, extracted from file vas_g05.srf.nc
Number of data points:
2099
Wavenumber (cm-1)   Filter response
     1377.500000       0.001565
     1377.600000       0.001728
     1377.700000       0.001891
     1377.800000       0.002054
     1377.900000       0.002217
     1378.000000       0.002380
     1378.100000       0.002543
     1378.200000       0.002707
     1378.300000       0.002871
     1378.400000       0.003033
     1378.500000       0.003196
     1378.600000       0.003359
     1378.700000       0.003523
     1378.800000       0.003687
     1378.900000       0.003849
     1379.000000       0.004012
     1379.100000       0.004175
     1379.200000       0.004338
     1379.300000       0.004502
     1379.400000       0.004663
     1379.500000       0.004820
     1379.600000       0.004977
     1379.700000       0.005135
     1379.800000       0.005293
     1379.900000       0.005450
     1380.000000       0.005608
     1380.100000       0.005766
     1380.200000       0.005922
     1380.300000       0.006080
     1380.400000       0.006237
     1380.500000       0.006395
     1380.600000       0.006552
     1380.700000       0.006710
     1380.800000       0.006867
     1380.900000       0.007025
     1381.000000       0.007182
     1381.100000       0.007340
     1381.200000       0.007497
     1381.300000       0.007657
     1381.400000       0.007819
     1381.500000       0.007981
     1381.600000       0.008143
     1381.700000       0.008305
     1381.800000       0.008468
     1381.900000       0.008630
     1382.000000       0.008792
     1382.100000       0.008955
     1382.200000       0.009117
     1382.300000       0.009279
     1382.400000       0.009442
     1382.500000       0.009604
     1382.600000       0.009766
     1382.700000       0.009928
     1382.800000       0.010091
     1382.900000       0.010253
     1383.000000       0.010415
     1383.100000       0.010576
     1383.200000       0.010746
     1383.300000       0.010927
     1383.400000       0.011110
     1383.500000       0.011292
     1383.600000       0.011475
     1383.700000       0.011658
     1383.800000       0.011842
     1383.900000       0.012024
     1384.000000       0.012206
     1384.100000       0.012389
     1384.200000       0.012571
     1384.300000       0.012754
     1384.400000       0.012937
     1384.500000       0.013121
     1384.600000       0.013303
     1384.700000       0.013485
     1384.800000       0.013669
     1384.900000       0.013851
     1385.000000       0.014030
     1385.100000       0.014240
     1385.200000       0.014509
     1385.300000       0.014799
     1385.400000       0.015084
     1385.500000       0.015370
     1385.600000       0.015657
     1385.700000       0.015943
     1385.800000       0.016230
     1385.900000       0.016516
     1386.000000       0.016803
     1386.100000       0.017088
     1386.200000       0.017374
     1386.300000       0.017662
     1386.400000       0.017947
     1386.500000       0.018233
     1386.600000       0.018520
     1386.700000       0.018806
     1386.800000       0.019092
     1386.900000       0.019379
     1387.000000       0.019665
     1387.100000       0.019950
     1387.200000       0.020236
     1387.300000       0.020522
     1387.400000       0.020807
     1387.500000       0.021093
     1387.600000       0.021379
     1387.700000       0.021663
     1387.800000       0.021949
     1387.900000       0.022234
     1388.000000       0.022520
     1388.100000       0.022805
     1388.200000       0.023091
     1388.300000       0.023377
     1388.400000       0.023663
     1388.500000       0.023947
     1388.600000       0.024233
     1388.700000       0.024518
     1388.800000       0.024804
     1388.900000       0.025090
     1389.000000       0.025375
     1389.100000       0.025659
     1389.200000       0.025943
     1389.300000       0.026228
     1389.400000       0.026513
     1389.500000       0.026799
     1389.600000       0.027083
     1389.700000       0.027367
     1389.800000       0.027653
     1389.900000       0.027937
     1390.000000       0.028221
     1390.100000       0.028506
     1390.200000       0.028791
     1390.300000       0.029077
     1390.400000       0.029361
     1390.500000       0.029645
     1390.600000       0.029930
     1390.700000       0.030214
     1390.800000       0.030500
     1390.900000       0.030782
     1391.000000       0.031062
     1391.100000       0.031340
     1391.200000       0.031618
     1391.300000       0.031898
     1391.400000       0.032177
     1391.500000       0.032455
     1391.600000       0.032734
     1391.700000       0.033012
     1391.800000       0.033291
     1391.900000       0.033570
     1392.000000       0.033850
     1392.100000       0.034128
     1392.200000       0.034406
     1392.300000       0.034685
     1392.400000       0.034964
     1392.500000       0.035244
     1392.600000       0.035522
     1392.700000       0.035800
     1392.800000       0.036080
     1392.900000       0.036362
     1393.000000       0.036645
     1393.100000       0.036928
     1393.200000       0.037211
     1393.300000       0.037495
     1393.400000       0.037778
     1393.500000       0.038061
     1393.600000       0.038344
     1393.700000       0.038627
     1393.800000       0.038911
     1393.900000       0.039194
     1394.000000       0.039477
     1394.100000       0.039760
     1394.200000       0.040043
     1394.300000       0.040326
     1394.400000       0.040609
     1394.500000       0.040893
     1394.600000       0.041176
     1394.700000       0.041455
     1394.800000       0.041771
     1394.900000       0.042124
     1395.000000       0.042473
     1395.100000       0.042822
     1395.200000       0.043171
     1395.300000       0.043521
     1395.400000       0.043870
     1395.500000       0.044219
     1395.600000       0.044568
     1395.700000       0.044917
     1395.800000       0.045266
     1395.900000       0.045615
     1396.000000       0.045964
     1396.100000       0.046313
     1396.200000       0.046662
     1396.300000       0.047012
     1396.400000       0.047361
     1396.500000       0.047710
     1396.600000       0.048033
     1396.700000       0.048565
     1396.800000       0.049544
     1396.900000       0.050709
     1397.000000       0.051850
     1397.100000       0.052992
     1397.200000       0.054133
     1397.300000       0.055276
     1397.400000       0.056417
     1397.500000       0.057558
     1397.600000       0.058700
     1397.700000       0.059841
     1397.800000       0.060985
     1397.900000       0.062125
     1398.000000       0.063266
     1398.100000       0.064408
     1398.200000       0.065549
     1398.300000       0.066693
     1398.400000       0.067834
     1398.500000       0.068975
     1398.600000       0.070116
     1398.700000       0.071258
     1398.800000       0.072404
     1398.900000       0.073547
     1399.000000       0.074690
     1399.100000       0.075833
     1399.200000       0.076976
     1399.300000       0.078122
     1399.400000       0.079265
     1399.500000       0.080408
     1399.600000       0.081551
     1399.700000       0.082694
     1399.800000       0.083840
     1399.900000       0.084983
     1400.000000       0.086126
     1400.100000       0.087269
     1400.200000       0.088412
     1400.300000       0.089558
     1400.400000       0.090701
     1400.500000       0.091844
     1400.600000       0.092987
     1400.700000       0.094127
     1400.800000       0.095269
     1400.900000       0.096409
     1401.000000       0.097549
     1401.100000       0.098689
     1401.200000       0.099829
     1401.300000       0.100971
     1401.400000       0.102110
     1401.500000       0.103250
     1401.600000       0.104390
     1401.700000       0.105531
     1401.800000       0.106673
     1401.900000       0.107812
     1402.000000       0.108952
     1402.100000       0.110092
     1402.200000       0.111232
     1402.300000       0.112374
     1402.400000       0.113514
     1402.500000       0.114654
     1402.600000       0.115793
     1402.700000       0.116930
     1402.800000       0.118068
     1402.900000       0.119205
     1403.000000       0.120342
     1403.100000       0.121478
     1403.200000       0.122615
     1403.300000       0.123754
     1403.400000       0.124890
     1403.500000       0.126027
     1403.600000       0.127164
     1403.700000       0.128301
     1403.800000       0.129439
     1403.900000       0.130575
     1404.000000       0.131712
     1404.100000       0.132849
     1404.200000       0.133986
     1404.300000       0.135124
     1404.400000       0.136261
     1404.500000       0.137398
     1404.600000       0.138536
     1404.700000       0.139675
     1404.800000       0.140815
     1404.900000       0.141953
     1405.000000       0.143092
     1405.100000       0.144231
     1405.200000       0.145370
     1405.300000       0.146510
     1405.400000       0.147648
     1405.500000       0.148787
     1405.600000       0.149926
     1405.700000       0.151065
     1405.800000       0.152205
     1405.900000       0.153344
     1406.000000       0.154483
     1406.100000       0.155621
     1406.200000       0.156759
     1406.300000       0.157900
     1406.400000       0.158994
     1406.500000       0.160391
     1406.600000       0.163116
     1406.700000       0.166721
     1406.800000       0.170230
     1406.900000       0.173732
     1407.000000       0.177235
     1407.100000       0.180738
     1407.200000       0.184240
     1407.300000       0.187749
     1407.400000       0.191251
     1407.500000       0.194754
     1407.600000       0.198257
     1407.700000       0.201759
     1407.800000       0.205268
     1407.900000       0.208770
     1408.000000       0.212273
     1408.100000       0.215776
     1408.200000       0.219278
     1408.300000       0.222787
     1408.400000       0.226288
     1408.500000       0.229798
     1408.600000       0.233324
     1408.700000       0.236856
     1408.800000       0.240395
     1408.900000       0.243928
     1409.000000       0.247460
     1409.100000       0.250993
     1409.200000       0.254526
     1409.300000       0.258064
     1409.400000       0.261596
     1409.500000       0.265129
     1409.600000       0.268662
     1409.700000       0.272195
     1409.800000       0.275733
     1409.900000       0.279265
     1410.000000       0.282798
     1410.100000       0.286330
     1410.200000       0.289863
     1410.300000       0.293402
     1410.400000       0.296934
     1410.500000       0.300465
     1410.600000       0.303994
     1410.700000       0.307521
     1410.800000       0.311054
     1410.900000       0.314582
     1411.000000       0.318109
     1411.100000       0.321638
     1411.200000       0.325165
     1411.300000       0.328698
     1411.400000       0.332226
     1411.500000       0.335753
     1411.600000       0.339282
     1411.700000       0.342809
     1411.800000       0.346342
     1411.900000       0.349869
     1412.000000       0.353397
     1412.100000       0.356925
     1412.200000       0.360453
     1412.300000       0.363986
     1412.400000       0.367514
     1412.500000       0.371040
     1412.600000       0.374564
     1412.700000       0.378086
     1412.800000       0.381614
     1412.900000       0.385137
     1413.000000       0.388660
     1413.100000       0.392183
     1413.200000       0.395705
     1413.300000       0.399234
     1413.400000       0.402756
     1413.500000       0.406279
     1413.600000       0.409802
     1413.700000       0.413325
     1413.800000       0.416853
     1413.900000       0.420376
     1414.000000       0.423899
     1414.100000       0.427422
     1414.200000       0.430944
     1414.300000       0.434472
     1414.400000       0.437995
     1414.500000       0.441517
     1414.600000       0.445035
     1414.700000       0.448553
     1414.800000       0.452076
     1414.900000       0.455594
     1415.000000       0.459112
     1415.100000       0.462630
     1415.200000       0.466148
     1415.300000       0.469671
     1415.400000       0.473189
     1415.500000       0.476707
     1415.600000       0.480225
     1415.700000       0.483743
     1415.800000       0.487266
     1415.900000       0.490784
     1416.000000       0.494302
     1416.100000       0.497820
     1416.200000       0.501338
     1416.300000       0.504861
     1416.400000       0.508364
     1416.500000       0.511995
     1416.600000       0.515820
     1416.700000       0.519688
     1416.800000       0.523555
     1416.900000       0.527416
     1417.000000       0.531278
     1417.100000       0.535140
     1417.200000       0.539001
     1417.300000       0.542868
     1417.400000       0.546729
     1417.500000       0.550591
     1417.600000       0.554452
     1417.700000       0.558313
     1417.800000       0.562181
     1417.900000       0.566042
     1418.000000       0.569903
     1418.100000       0.573765
     1418.200000       0.577626
     1418.300000       0.581494
     1418.400000       0.585354
     1418.500000       0.589218
     1418.600000       0.593087
     1418.700000       0.596957
     1418.800000       0.600833
     1418.900000       0.604703
     1419.000000       0.608572
     1419.100000       0.612443
     1419.200000       0.616313
     1419.300000       0.620189
     1419.400000       0.624058
     1419.500000       0.627929
     1419.600000       0.631799
     1419.700000       0.635669
     1419.800000       0.639545
     1419.900000       0.643415
     1420.000000       0.647284
     1420.100000       0.651155
     1420.200000       0.655025
     1420.300000       0.658901
     1420.400000       0.662793
     1420.500000       0.666511
     1420.600000       0.669791
     1420.700000       0.672856
     1420.800000       0.675953
     1420.900000       0.679045
     1421.000000       0.682138
     1421.100000       0.685230
     1421.200000       0.688321
     1421.300000       0.691418
     1421.400000       0.694510
     1421.500000       0.697602
     1421.600000       0.700694
     1421.700000       0.703786
     1421.800000       0.706882
     1421.900000       0.709974
     1422.000000       0.713067
     1422.100000       0.716159
     1422.200000       0.719250
     1422.300000       0.722347
     1422.400000       0.725452
     1422.500000       0.728478
     1422.600000       0.731037
     1422.700000       0.733258
     1422.800000       0.735522
     1422.900000       0.737781
     1423.000000       0.740041
     1423.100000       0.742301
     1423.200000       0.744560
     1423.300000       0.746824
     1423.400000       0.749083
     1423.500000       0.751343
     1423.600000       0.753603
     1423.700000       0.755863
     1423.800000       0.758126
     1423.900000       0.760385
     1424.000000       0.762645
     1424.100000       0.764905
     1424.200000       0.767165
     1424.300000       0.769429
     1424.400000       0.771688
     1424.500000       0.773948
     1424.600000       0.776207
     1424.700000       0.778465
     1424.800000       0.780727
     1424.900000       0.782984
     1425.000000       0.785242
     1425.100000       0.787500
     1425.200000       0.789758
     1425.300000       0.792020
     1425.400000       0.794277
     1425.500000       0.796535
     1425.600000       0.798793
     1425.700000       0.801051
     1425.800000       0.803313
     1425.900000       0.805570
     1426.000000       0.807828
     1426.100000       0.810086
     1426.200000       0.812344
     1426.300000       0.814606
     1426.400000       0.816863
     1426.500000       0.819121
     1426.600000       0.821378
     1426.700000       0.823630
     1426.800000       0.825885
     1426.900000       0.828136
     1427.000000       0.830388
     1427.100000       0.832640
     1427.200000       0.834892
     1427.300000       0.837147
     1427.400000       0.839398
     1427.500000       0.841650
     1427.600000       0.843902
     1427.700000       0.846154
     1427.800000       0.848409
     1427.900000       0.850660
     1428.000000       0.852912
     1428.100000       0.855164
     1428.200000       0.857416
     1428.300000       0.859671
     1428.400000       0.861922
     1428.500000       0.864176
     1428.600000       0.866420
     1428.700000       0.868615
     1428.800000       0.870781
     1428.900000       0.872948
     1429.000000       0.875115
     1429.100000       0.877282
     1429.200000       0.879449
     1429.300000       0.881619
     1429.400000       0.883786
     1429.500000       0.885953
     1429.600000       0.888120
     1429.700000       0.890287
     1429.800000       0.892457
     1429.900000       0.894624
     1430.000000       0.896792
     1430.100000       0.898959
     1430.200000       0.901125
     1430.300000       0.903296
     1430.400000       0.905463
     1430.500000       0.907630
     1430.600000       0.909840
     1430.700000       0.911668
     1430.800000       0.913044
     1430.900000       0.914392
     1431.000000       0.915748
     1431.100000       0.917103
     1431.200000       0.918459
     1431.300000       0.919817
     1431.400000       0.921173
     1431.500000       0.922529
     1431.600000       0.923885
     1431.700000       0.925241
     1431.800000       0.926599
     1431.900000       0.927955
     1432.000000       0.929310
     1432.100000       0.930666
     1432.200000       0.932022
     1432.300000       0.933380
     1432.400000       0.934736
     1432.500000       0.936091
     1432.600000       0.937461
     1432.700000       0.938734
     1432.800000       0.939670
     1432.900000       0.940400
     1433.000000       0.941154
     1433.100000       0.941908
     1433.200000       0.942662
     1433.300000       0.943417
     1433.400000       0.944171
     1433.500000       0.944925
     1433.600000       0.945680
     1433.700000       0.946434
     1433.800000       0.947188
     1433.900000       0.947942
     1434.000000       0.948696
     1434.100000       0.949451
     1434.200000       0.950205
     1434.300000       0.950959
     1434.400000       0.951713
     1434.500000       0.952467
     1434.600000       0.953222
     1434.700000       0.953979
     1434.800000       0.954706
     1434.900000       0.955394
     1435.000000       0.956076
     1435.100000       0.956761
     1435.200000       0.957445
     1435.300000       0.958129
     1435.400000       0.958812
     1435.500000       0.959496
     1435.600000       0.960181
     1435.700000       0.960865
     1435.800000       0.961549
     1435.900000       0.962232
     1436.000000       0.962916
     1436.100000       0.963601
     1436.200000       0.964285
     1436.300000       0.964969
     1436.400000       0.965652
     1436.500000       0.966336
     1436.600000       0.967021
     1436.700000       0.967709
     1436.800000       0.968375
     1436.900000       0.968812
     1437.000000       0.969067
     1437.100000       0.969343
     1437.200000       0.969618
     1437.300000       0.969894
     1437.400000       0.970170
     1437.500000       0.970445
     1437.600000       0.970722
     1437.700000       0.970997
     1437.800000       0.971272
     1437.900000       0.971549
     1438.000000       0.971824
     1438.100000       0.972101
     1438.200000       0.972376
     1438.300000       0.972652
     1438.400000       0.972927
     1438.500000       0.973202
     1438.600000       0.973479
     1438.700000       0.973754
     1438.800000       0.974030
     1438.900000       0.974306
     1439.000000       0.974585
     1439.100000       0.974866
     1439.200000       0.975145
     1439.300000       0.975424
     1439.400000       0.975704
     1439.500000       0.975985
     1439.600000       0.976264
     1439.700000       0.976544
     1439.800000       0.976823
     1439.900000       0.977103
     1440.000000       0.977382
     1440.100000       0.977662
     1440.200000       0.977943
     1440.300000       0.978222
     1440.400000       0.978502
     1440.500000       0.978781
     1440.600000       0.979062
     1440.700000       0.979341
     1440.800000       0.979622
     1440.900000       0.979901
     1441.000000       0.980179
     1441.100000       0.980454
     1441.200000       0.980727
     1441.300000       0.981001
     1441.400000       0.981275
     1441.500000       0.981549
     1441.600000       0.981824
     1441.700000       0.982098
     1441.800000       0.982372
     1441.900000       0.982646
     1442.000000       0.982920
     1442.100000       0.983195
     1442.200000       0.983469
     1442.300000       0.983743
     1442.400000       0.984017
     1442.500000       0.984291
     1442.600000       0.984565
     1442.700000       0.984839
     1442.800000       0.985114
     1442.900000       0.985388
     1443.000000       0.985662
     1443.100000       0.985938
     1443.200000       0.986217
     1443.300000       0.986495
     1443.400000       0.986773
     1443.500000       0.987050
     1443.600000       0.987329
     1443.700000       0.987607
     1443.800000       0.987885
     1443.900000       0.988163
     1444.000000       0.988441
     1444.100000       0.988719
     1444.200000       0.988997
     1444.300000       0.989275
     1444.400000       0.989553
     1444.500000       0.989832
     1444.600000       0.990111
     1444.700000       0.990389
     1444.800000       0.990667
     1444.900000       0.990945
     1445.000000       0.991223
     1445.100000       0.991501
     1445.200000       0.991753
     1445.300000       0.991985
     1445.400000       0.992220
     1445.500000       0.992453
     1445.600000       0.992688
     1445.700000       0.992922
     1445.800000       0.993157
     1445.900000       0.993391
     1446.000000       0.993625
     1446.100000       0.993860
     1446.200000       0.994094
     1446.300000       0.994328
     1446.400000       0.994562
     1446.500000       0.994797
     1446.600000       0.995031
     1446.700000       0.995265
     1446.800000       0.995500
     1446.900000       0.995734
     1447.000000       0.995968
     1447.100000       0.996204
     1447.200000       0.996434
     1447.300000       0.996626
     1447.400000       0.996789
     1447.500000       0.996956
     1447.600000       0.997123
     1447.700000       0.997290
     1447.800000       0.997457
     1447.900000       0.997624
     1448.000000       0.997791
     1448.100000       0.997958
     1448.200000       0.998124
     1448.300000       0.998291
     1448.400000       0.998458
     1448.500000       0.998625
     1448.600000       0.998792
     1448.700000       0.998959
     1448.800000       0.999126
     1448.900000       0.999292
     1449.000000       0.999459
     1449.100000       0.999626
     1449.200000       0.999796
     1449.300000       0.999949
     1449.400000       1.000000
     1449.500000       0.999977
     1449.600000       0.999962
     1449.700000       0.999948
     1449.800000       0.999934
     1449.900000       0.999920
     1450.000000       0.999905
     1450.100000       0.999891
     1450.200000       0.999877
     1450.300000       0.999863
     1450.400000       0.999848
     1450.500000       0.999834
     1450.600000       0.999821
     1450.700000       0.999806
     1450.800000       0.999791
     1450.900000       0.999777
     1451.000000       0.999763
     1451.100000       0.999748
     1451.200000       0.999734
     1451.300000       0.999721
     1451.400000       0.999706
     1451.500000       0.999691
     1451.600000       0.999677
     1451.700000       0.999663
     1451.800000       0.999649
     1451.900000       0.999635
     1452.000000       0.999620
     1452.100000       0.999606
     1452.200000       0.999592
     1452.300000       0.999578
     1452.400000       0.999563
     1452.500000       0.999549
     1452.600000       0.999535
     1452.700000       0.999521
     1452.800000       0.999507
     1452.900000       0.999492
     1453.000000       0.999478
     1453.100000       0.999464
     1453.200000       0.999450
     1453.300000       0.999435
     1453.400000       0.999421
     1453.500000       0.999407
     1453.600000       0.999390
     1453.700000       0.999371
     1453.800000       0.999352
     1453.900000       0.999334
     1454.000000       0.999315
     1454.100000       0.999296
     1454.200000       0.999277
     1454.300000       0.999258
     1454.400000       0.999239
     1454.500000       0.999220
     1454.600000       0.999201
     1454.700000       0.999182
     1454.800000       0.999163
     1454.900000       0.999144
     1455.000000       0.999126
     1455.100000       0.999107
     1455.200000       0.999088
     1455.300000       0.999069
     1455.400000       0.999050
     1455.500000       0.999031
     1455.600000       0.999012
     1455.700000       0.998991
     1455.800000       0.998967
     1455.900000       0.998944
     1456.000000       0.998920
     1456.100000       0.998897
     1456.200000       0.998873
     1456.300000       0.998849
     1456.400000       0.998826
     1456.500000       0.998802
     1456.600000       0.998779
     1456.700000       0.998755
     1456.800000       0.998732
     1456.900000       0.998708
     1457.000000       0.998684
     1457.100000       0.998661
     1457.200000       0.998637
     1457.300000       0.998614
     1457.400000       0.998590
     1457.500000       0.998567
     1457.600000       0.998543
     1457.700000       0.998520
     1457.800000       0.998498
     1457.900000       0.998478
     1458.000000       0.998460
     1458.100000       0.998441
     1458.200000       0.998422
     1458.300000       0.998403
     1458.400000       0.998385
     1458.500000       0.998366
     1458.600000       0.998347
     1458.700000       0.998328
     1458.800000       0.998309
     1458.900000       0.998291
     1459.000000       0.998272
     1459.100000       0.998253
     1459.200000       0.998234
     1459.300000       0.998215
     1459.400000       0.998197
     1459.500000       0.998178
     1459.600000       0.998159
     1459.700000       0.998140
     1459.800000       0.998124
     1459.900000       0.998087
     1460.000000       0.997997
     1460.100000       0.997881
     1460.200000       0.997768
     1460.300000       0.997656
     1460.400000       0.997543
     1460.500000       0.997432
     1460.600000       0.997319
     1460.700000       0.997206
     1460.800000       0.997094
     1460.900000       0.996981
     1461.000000       0.996869
     1461.100000       0.996756
     1461.200000       0.996644
     1461.300000       0.996531
     1461.400000       0.996420
     1461.500000       0.996307
     1461.600000       0.996194
     1461.700000       0.996081
     1461.800000       0.995969
     1461.900000       0.995859
     1462.000000       0.995745
     1462.100000       0.995465
     1462.200000       0.995042
     1462.300000       0.994636
     1462.400000       0.994230
     1462.500000       0.993824
     1462.600000       0.993417
     1462.700000       0.993010
     1462.800000       0.992604
     1462.900000       0.992197
     1463.000000       0.991792
     1463.100000       0.991385
     1463.200000       0.990978
     1463.300000       0.990572
     1463.400000       0.990165
     1463.500000       0.989760
     1463.600000       0.989353
     1463.700000       0.988946
     1463.800000       0.988540
     1463.900000       0.988133
     1464.000000       0.987727
     1464.100000       0.987320
     1464.200000       0.986915
     1464.300000       0.986510
     1464.400000       0.986104
     1464.500000       0.985699
     1464.600000       0.985293
     1464.700000       0.984888
     1464.800000       0.984483
     1464.900000       0.984078
     1465.000000       0.983673
     1465.100000       0.983267
     1465.200000       0.982862
     1465.300000       0.982457
     1465.400000       0.982052
     1465.500000       0.981646
     1465.600000       0.981241
     1465.700000       0.980836
     1465.800000       0.980431
     1465.900000       0.980026
     1466.000000       0.979621
     1466.100000       0.979215
     1466.200000       0.978810
     1466.300000       0.978405
     1466.400000       0.978004
     1466.500000       0.977604
     1466.600000       0.977204
     1466.700000       0.976805
     1466.800000       0.976406
     1466.900000       0.976007
     1467.000000       0.975607
     1467.100000       0.975207
     1467.200000       0.974808
     1467.300000       0.974409
     1467.400000       0.974009
     1467.500000       0.973610
     1467.600000       0.973210
     1467.700000       0.972811
     1467.800000       0.972411
     1467.900000       0.972012
     1468.000000       0.971612
     1468.100000       0.971212
     1468.200000       0.970813
     1468.300000       0.970413
     1468.400000       0.970014
     1468.500000       0.969616
     1468.600000       0.969217
     1468.700000       0.968818
     1468.800000       0.968421
     1468.900000       0.968023
     1469.000000       0.967625
     1469.100000       0.967226
     1469.200000       0.966827
     1469.300000       0.966430
     1469.400000       0.966032
     1469.500000       0.965633
     1469.600000       0.965234
     1469.700000       0.964836
     1469.800000       0.964438
     1469.900000       0.964041
     1470.000000       0.963642
     1470.100000       0.963243
     1470.200000       0.962846
     1470.300000       0.962448
     1470.400000       0.962050
     1470.500000       0.961651
     1470.600000       0.961252
     1470.700000       0.960855
     1470.800000       0.960458
     1470.900000       0.960061
     1471.000000       0.959664
     1471.100000       0.959266
     1471.200000       0.958870
     1471.300000       0.958472
     1471.400000       0.958075
     1471.500000       0.957679
     1471.600000       0.957281
     1471.700000       0.956885
     1471.800000       0.956488
     1471.900000       0.956090
     1472.000000       0.955694
     1472.100000       0.955296
     1472.200000       0.954899
     1472.300000       0.954502
     1472.400000       0.954105
     1472.500000       0.953708
     1472.600000       0.953310
     1472.700000       0.952913
     1472.800000       0.952518
     1472.900000       0.952125
     1473.000000       0.951734
     1473.100000       0.951342
     1473.200000       0.950951
     1473.300000       0.950560
     1473.400000       0.950168
     1473.500000       0.949778
     1473.600000       0.949385
     1473.700000       0.948994
     1473.800000       0.948604
     1473.900000       0.948212
     1474.000000       0.947821
     1474.100000       0.947430
     1474.200000       0.947038
     1474.300000       0.946647
     1474.400000       0.946256
     1474.500000       0.945864
     1474.600000       0.945473
     1474.700000       0.945082
     1474.800000       0.944690
     1474.900000       0.944299
     1475.000000       0.943909
     1475.100000       0.943518
     1475.200000       0.943128
     1475.300000       0.942738
     1475.400000       0.942348
     1475.500000       0.941958
     1475.600000       0.941567
     1475.700000       0.941177
     1475.800000       0.940787
     1475.900000       0.940396
     1476.000000       0.940007
     1476.100000       0.939616
     1476.200000       0.939226
     1476.300000       0.938836
     1476.400000       0.938446
     1476.500000       0.938056
     1476.600000       0.937665
     1476.700000       0.937275
     1476.800000       0.936885
     1476.900000       0.936495
     1477.000000       0.936105
     1477.100000       0.935714
     1477.200000       0.935326
     1477.300000       0.934943
     1477.400000       0.934559
     1477.500000       0.934174
     1477.600000       0.933789
     1477.700000       0.933404
     1477.800000       0.933020
     1477.900000       0.932635
     1478.000000       0.932252
     1478.100000       0.931867
     1478.200000       0.931482
     1478.300000       0.931098
     1478.400000       0.930713
     1478.500000       0.930330
     1478.600000       0.929945
     1478.700000       0.929561
     1478.800000       0.929176
     1478.900000       0.928791
     1479.000000       0.928407
     1479.100000       0.928022
     1479.200000       0.927639
     1479.300000       0.927254
     1479.400000       0.926870
     1479.500000       0.926487
     1479.600000       0.926104
     1479.700000       0.925720
     1479.800000       0.925337
     1479.900000       0.924954
     1480.000000       0.924571
     1480.100000       0.924187
     1480.200000       0.923804
     1480.300000       0.923420
     1480.400000       0.923038
     1480.500000       0.922655
     1480.600000       0.922270
     1480.700000       0.921888
     1480.800000       0.921505
     1480.900000       0.921121
     1481.000000       0.920738
     1481.100000       0.920355
     1481.200000       0.919971
     1481.300000       0.919588
     1481.400000       0.919205
     1481.500000       0.918821
     1481.600000       0.918438
     1481.700000       0.918057
     1481.800000       0.917675
     1481.900000       0.917293
     1482.000000       0.916911
     1482.100000       0.916528
     1482.200000       0.916145
     1482.300000       0.915764
     1482.400000       0.915382
     1482.500000       0.915000
     1482.600000       0.914617
     1482.700000       0.914235
     1482.800000       0.913853
     1482.900000       0.913470
     1483.000000       0.913089
     1483.100000       0.912706
     1483.200000       0.912324
     1483.300000       0.911942
     1483.400000       0.911560
     1483.500000       0.911178
     1483.600000       0.910795
     1483.700000       0.910413
     1483.800000       0.910035
     1483.900000       0.909659
     1484.000000       0.909282
     1484.100000       0.908906
     1484.200000       0.908530
     1484.300000       0.908153
     1484.400000       0.907777
     1484.500000       0.907400
     1484.600000       0.907023
     1484.700000       0.906647
     1484.800000       0.906270
     1484.900000       0.905894
     1485.000000       0.905518
     1485.100000       0.905141
     1485.200000       0.904765
     1485.300000       0.904388
     1485.400000       0.904012
     1485.500000       0.903635
     1485.600000       0.903258
     1485.700000       0.902882
     1485.800000       0.902505
     1485.900000       0.902129
     1486.000000       0.901756
     1486.100000       0.901385
     1486.200000       0.901015
     1486.300000       0.900644
     1486.400000       0.900273
     1486.500000       0.899902
     1486.600000       0.899531
     1486.700000       0.899160
     1486.800000       0.898789
     1486.900000       0.898419
     1487.000000       0.898048
     1487.100000       0.897676
     1487.200000       0.897306
     1487.300000       0.896935
     1487.400000       0.896563
     1487.500000       0.896193
     1487.600000       0.895822
     1487.700000       0.895451
     1487.800000       0.895080
     1487.900000       0.894710
     1488.000000       0.894339
     1488.100000       0.893967
     1488.200000       0.893595
     1488.300000       0.893221
     1488.400000       0.892847
     1488.500000       0.892472
     1488.600000       0.892097
     1488.700000       0.891724
     1488.800000       0.891349
     1488.900000       0.890975
     1489.000000       0.890601
     1489.100000       0.890227
     1489.200000       0.889853
     1489.300000       0.889478
     1489.400000       0.889104
     1489.500000       0.888730
     1489.600000       0.888355
     1489.700000       0.887981
     1489.800000       0.887607
     1489.900000       0.887233
     1490.000000       0.886859
     1490.100000       0.886484
     1490.200000       0.886110
     1490.300000       0.885735
     1490.400000       0.885364
     1490.500000       0.884995
     1490.600000       0.884626
     1490.700000       0.884258
     1490.800000       0.883889
     1490.900000       0.883521
     1491.000000       0.883152
     1491.100000       0.882783
     1491.200000       0.882415
     1491.300000       0.882046
     1491.400000       0.881678
     1491.500000       0.881309
     1491.600000       0.880940
     1491.700000       0.880572
     1491.800000       0.880203
     1491.900000       0.879835
     1492.000000       0.879466
     1492.100000       0.879097
     1492.200000       0.878729
     1492.300000       0.878360
     1492.400000       0.877992
     1492.500000       0.877623
     1492.600000       0.877255
     1492.700000       0.876887
     1492.800000       0.876520
     1492.900000       0.876152
     1493.000000       0.875785
     1493.100000       0.875417
     1493.200000       0.875049
     1493.300000       0.874682
     1493.400000       0.874314
     1493.500000       0.873947
     1493.600000       0.873579
     1493.700000       0.873211
     1493.800000       0.872844
     1493.900000       0.872476
     1494.000000       0.872109
     1494.100000       0.871741
     1494.200000       0.871373
     1494.300000       0.871006
     1494.400000       0.870638
     1494.500000       0.870271
     1494.600000       0.869903
     1494.700000       0.869535
     1494.800000       0.869168
     1494.900000       0.868805
     1495.000000       0.868443
     1495.100000       0.868081
     1495.200000       0.867719
     1495.300000       0.867357
     1495.400000       0.866995
     1495.500000       0.866633
     1495.600000       0.866271
     1495.700000       0.865909
     1495.800000       0.865547
     1495.900000       0.865185
     1496.000000       0.864823
     1496.100000       0.864460
     1496.200000       0.864099
     1496.300000       0.863737
     1496.400000       0.863375
     1496.500000       0.863013
     1496.600000       0.862650
     1496.700000       0.862289
     1496.800000       0.861927
     1496.900000       0.861565
     1497.000000       0.861203
     1497.100000       0.860841
     1497.200000       0.860481
     1497.300000       0.860120
     1497.400000       0.859759
     1497.500000       0.859398
     1497.600000       0.859037
     1497.700000       0.858676
     1497.800000       0.858315
     1497.900000       0.857955
     1498.000000       0.857594
     1498.100000       0.857232
     1498.200000       0.856872
     1498.300000       0.856511
     1498.400000       0.856150
     1498.500000       0.855789
     1498.600000       0.855428
     1498.700000       0.855067
     1498.800000       0.854706
     1498.900000       0.854346
     1499.000000       0.853985
     1499.100000       0.853623
     1499.200000       0.853266
     1499.300000       0.852880
     1499.400000       0.852426
     1499.500000       0.851943
     1499.600000       0.851462
     1499.700000       0.850982
     1499.800000       0.850503
     1499.900000       0.850023
     1500.000000       0.849544
     1500.100000       0.849064
     1500.200000       0.848584
     1500.300000       0.848104
     1500.400000       0.847624
     1500.500000       0.847145
     1500.600000       0.846665
     1500.700000       0.846185
     1500.800000       0.845706
     1500.900000       0.845226
     1501.000000       0.844747
     1501.100000       0.844266
     1501.200000       0.843786
     1501.300000       0.843307
     1501.400000       0.842827
     1501.500000       0.842357
     1501.600000       0.841803
     1501.700000       0.841166
     1501.800000       0.840537
     1501.900000       0.839909
     1502.000000       0.839280
     1502.100000       0.838650
     1502.200000       0.838021
     1502.300000       0.837392
     1502.400000       0.836764
     1502.500000       0.836135
     1502.600000       0.835505
     1502.700000       0.834877
     1502.800000       0.834248
     1502.900000       0.833619
     1503.000000       0.832990
     1503.100000       0.832361
     1503.200000       0.831732
     1503.300000       0.831103
     1503.400000       0.830475
     1503.500000       0.829846
     1503.600000       0.829216
     1503.700000       0.828586
     1503.800000       0.827959
     1503.900000       0.827339
     1504.000000       0.826721
     1504.100000       0.826102
     1504.200000       0.825484
     1504.300000       0.824866
     1504.400000       0.824248
     1504.500000       0.823630
     1504.600000       0.823011
     1504.700000       0.822393
     1504.800000       0.821775
     1504.900000       0.821157
     1505.000000       0.820539
     1505.100000       0.819920
     1505.200000       0.819302
     1505.300000       0.818684
     1505.400000       0.818066
     1505.500000       0.817448
     1505.600000       0.816829
     1505.700000       0.816211
     1505.800000       0.815593
     1505.900000       0.814975
     1506.000000       0.814357
     1506.100000       0.813739
     1506.200000       0.813123
     1506.300000       0.812506
     1506.400000       0.811890
     1506.500000       0.811274
     1506.600000       0.810657
     1506.700000       0.810041
     1506.800000       0.809425
     1506.900000       0.808809
     1507.000000       0.808192
     1507.100000       0.807576
     1507.200000       0.806960
     1507.300000       0.806343
     1507.400000       0.805727
     1507.500000       0.805111
     1507.600000       0.804494
     1507.700000       0.803878
     1507.800000       0.803261
     1507.900000       0.802645
     1508.000000       0.802029
     1508.100000       0.801412
     1508.200000       0.800796
     1508.300000       0.800180
     1508.400000       0.799569
     1508.500000       0.798964
     1508.600000       0.798358
     1508.700000       0.797752
     1508.800000       0.797147
     1508.900000       0.796541
     1509.000000       0.795936
     1509.100000       0.795330
     1509.200000       0.794724
     1509.300000       0.794119
     1509.400000       0.793513
     1509.500000       0.792908
     1509.600000       0.792302
     1509.700000       0.791696
     1509.800000       0.791091
     1509.900000       0.790485
     1510.000000       0.789880
     1510.100000       0.789273
     1510.200000       0.788667
     1510.300000       0.788062
     1510.400000       0.787457
     1510.500000       0.786851
     1510.600000       0.786245
     1510.700000       0.785641
     1510.800000       0.785037
     1510.900000       0.784433
     1511.000000       0.783830
     1511.100000       0.783225
     1511.200000       0.782621
     1511.300000       0.782018
     1511.400000       0.781414
     1511.500000       0.780811
     1511.600000       0.780206
     1511.700000       0.779602
     1511.800000       0.778999
     1511.900000       0.778395
     1512.000000       0.777791
     1512.100000       0.777187
     1512.200000       0.776583
     1512.300000       0.775980
     1512.400000       0.775376
     1512.500000       0.774772
     1512.600000       0.774168
     1512.700000       0.773564
     1512.800000       0.772960
     1512.900000       0.772358
     1513.000000       0.771763
     1513.100000       0.771169
     1513.200000       0.770575
     1513.300000       0.769982
     1513.400000       0.769389
     1513.500000       0.768796
     1513.600000       0.768202
     1513.700000       0.767609
     1513.800000       0.767016
     1513.900000       0.766422
     1514.000000       0.765829
     1514.100000       0.765235
     1514.200000       0.764642
     1514.300000       0.764049
     1514.400000       0.763455
     1514.500000       0.762862
     1514.600000       0.762268
     1514.700000       0.761675
     1514.800000       0.761082
     1514.900000       0.760488
     1515.000000       0.759895
     1515.100000       0.759301
     1515.200000       0.758708
     1515.300000       0.758117
     1515.400000       0.757525
     1515.500000       0.756934
     1515.600000       0.756342
     1515.700000       0.755750
     1515.800000       0.755159
     1515.900000       0.754567
     1516.000000       0.753976
     1516.100000       0.753384
     1516.200000       0.752792
     1516.300000       0.752201
     1516.400000       0.751610
     1516.500000       0.751019
     1516.600000       0.750426
     1516.700000       0.749835
     1516.800000       0.749244
     1516.900000       0.748652
     1517.000000       0.748061
     1517.100000       0.747469
     1517.200000       0.746877
     1517.300000       0.746286
     1517.400000       0.745694
     1517.500000       0.745105
     1517.600000       0.744521
     1517.700000       0.743941
     1517.800000       0.743360
     1517.900000       0.742779
     1518.000000       0.742198
     1518.100000       0.741616
     1518.200000       0.741036
     1518.300000       0.740455
     1518.400000       0.739874
     1518.500000       0.739293
     1518.600000       0.738711
     1518.700000       0.738131
     1518.800000       0.737550
     1518.900000       0.736969
     1519.000000       0.736388
     1519.100000       0.735806
     1519.200000       0.735226
     1519.300000       0.734645
     1519.400000       0.734064
     1519.500000       0.733483
     1519.600000       0.732901
     1519.700000       0.732321
     1519.800000       0.731741
     1519.900000       0.731165
     1520.000000       0.730590
     1520.100000       0.730014
     1520.200000       0.729439
     1520.300000       0.728864
     1520.400000       0.728290
     1520.500000       0.727715
     1520.600000       0.727139
     1520.700000       0.726565
     1520.800000       0.725990
     1520.900000       0.725415
     1521.000000       0.724840
     1521.100000       0.724265
     1521.200000       0.723690
     1521.300000       0.723115
     1521.400000       0.722540
     1521.500000       0.721966
     1521.600000       0.721390
     1521.700000       0.720815
     1521.800000       0.720240
     1521.900000       0.719665
     1522.000000       0.719090
     1522.100000       0.718515
     1522.200000       0.717945
     1522.300000       0.717376
     1522.400000       0.716807
     1522.500000       0.716238
     1522.600000       0.715669
     1522.700000       0.715100
     1522.800000       0.714531
     1522.900000       0.713963
     1523.000000       0.713394
     1523.100000       0.712824
     1523.200000       0.712256
     1523.300000       0.711687
     1523.400000       0.711118
     1523.500000       0.710549
     1523.600000       0.709980
     1523.700000       0.709411
     1523.800000       0.708842
     1523.900000       0.708273
     1524.000000       0.707704
     1524.100000       0.707135
     1524.200000       0.706566
     1524.300000       0.705994
     1524.400000       0.705421
     1524.500000       0.705206
     1524.600000       0.705311
     1524.700000       0.705380
     1524.800000       0.705449
     1524.900000       0.705518
     1525.000000       0.705586
     1525.100000       0.705655
     1525.200000       0.705724
     1525.300000       0.705792
     1525.400000       0.705861
     1525.500000       0.705930
     1525.600000       0.706000
     1525.700000       0.706068
     1525.800000       0.706136
     1525.900000       0.706206
     1526.000000       0.706274
     1526.100000       0.706342
     1526.200000       0.706411
     1526.300000       0.706480
     1526.400000       0.706549
     1526.500000       0.706617
     1526.600000       0.706686
     1526.700000       0.706754
     1526.800000       0.706835
     1526.900000       0.706932
     1527.000000       0.707031
     1527.100000       0.707129
     1527.200000       0.707228
     1527.300000       0.707326
     1527.400000       0.707425
     1527.500000       0.707523
     1527.600000       0.707622
     1527.700000       0.707720
     1527.800000       0.707819
     1527.900000       0.707917
     1528.000000       0.708016
     1528.100000       0.708114
     1528.200000       0.708213
     1528.300000       0.708311
     1528.400000       0.708411
     1528.500000       0.708509
     1528.600000       0.708607
     1528.700000       0.708706
     1528.800000       0.708804
     1528.900000       0.708903
     1529.000000       0.709001
     1529.100000       0.709099
     1529.200000       0.709194
     1529.300000       0.709288
     1529.400000       0.709382
     1529.500000       0.709476
     1529.600000       0.709570
     1529.700000       0.709664
     1529.800000       0.709758
     1529.900000       0.709851
     1530.000000       0.709945
     1530.100000       0.710040
     1530.200000       0.710133
     1530.300000       0.710227
     1530.400000       0.710321
     1530.500000       0.710415
     1530.600000       0.710509
     1530.700000       0.710603
     1530.800000       0.710697
     1530.900000       0.710791
     1531.000000       0.710885
     1531.100000       0.710979
     1531.200000       0.711073
     1531.300000       0.711167
     1531.400000       0.711261
     1531.500000       0.711352
     1531.600000       0.711441
     1531.700000       0.711531
     1531.800000       0.711620
     1531.900000       0.711709
     1532.000000       0.711799
     1532.100000       0.711888
     1532.200000       0.711978
     1532.300000       0.712067
     1532.400000       0.712156
     1532.500000       0.712246
     1532.600000       0.712336
     1532.700000       0.712425
     1532.800000       0.712514
     1532.900000       0.712604
     1533.000000       0.712693
     1533.100000       0.712783
     1533.200000       0.712872
     1533.300000       0.712961
     1533.400000       0.713051
     1533.500000       0.713140
     1533.600000       0.713230
     1533.700000       0.713319
     1533.800000       0.713408
     1533.900000       0.713497
     1534.000000       0.713587
     1534.100000       0.713676
     1534.200000       0.713765
     1534.300000       0.713854
     1534.400000       0.713943
     1534.500000       0.714032
     1534.600000       0.714121
     1534.700000       0.714210
     1534.800000       0.714300
     1534.900000       0.714389
     1535.000000       0.714478
     1535.100000       0.714567
     1535.200000       0.714656
     1535.300000       0.714745
     1535.400000       0.714834
     1535.500000       0.714924
     1535.600000       0.715013
     1535.700000       0.715102
     1535.800000       0.715191
     1535.900000       0.715280
     1536.000000       0.715369
     1536.100000       0.715459
     1536.200000       0.715544
     1536.300000       0.715624
     1536.400000       0.715704
     1536.500000       0.715784
     1536.600000       0.715865
     1536.700000       0.715945
     1536.800000       0.716025
     1536.900000       0.716106
     1537.000000       0.716186
     1537.100000       0.716267
     1537.200000       0.716347
     1537.300000       0.716427
     1537.400000       0.716508
     1537.500000       0.716588
     1537.600000       0.716669
     1537.700000       0.716749
     1537.800000       0.716830
     1537.900000       0.716910
     1538.000000       0.716990
     1538.100000       0.717071
     1538.200000       0.717151
     1538.300000       0.717232
     1538.400000       0.717303
     1538.500000       0.717441
     1538.600000       0.717792
     1538.700000       0.718261
     1538.800000       0.718717
     1538.900000       0.719172
     1539.000000       0.719628
     1539.100000       0.720084
     1539.200000       0.720539
     1539.300000       0.720995
     1539.400000       0.721450
     1539.500000       0.721906
     1539.600000       0.722362
     1539.700000       0.722817
     1539.800000       0.723273
     1539.900000       0.723728
     1540.000000       0.724184
     1540.100000       0.724640
     1540.200000       0.725095
     1540.300000       0.725551
     1540.400000       0.726006
     1540.500000       0.726462
     1540.600000       0.726918
     1540.700000       0.727373
     1540.800000       0.727829
     1540.900000       0.728283
     1541.000000       0.728733
     1541.100000       0.729183
     1541.200000       0.729633
     1541.300000       0.730083
     1541.400000       0.730533
     1541.500000       0.730983
     1541.600000       0.731433
     1541.700000       0.731883
     1541.800000       0.732333
     1541.900000       0.732783
     1542.000000       0.733233
     1542.100000       0.733683
     1542.200000       0.734133
     1542.300000       0.734583
     1542.400000       0.735033
     1542.500000       0.735483
     1542.600000       0.735933
     1542.700000       0.736383
     1542.800000       0.736833
     1542.900000       0.737283
     1543.000000       0.737733
     1543.100000       0.738183
     1543.200000       0.738633
     1543.300000       0.739084
     1543.400000       0.739537
     1543.500000       0.739989
     1543.600000       0.740442
     1543.700000       0.740895
     1543.800000       0.741348
     1543.900000       0.741801
     1544.000000       0.742253
     1544.100000       0.742707
     1544.200000       0.743160
     1544.300000       0.743612
     1544.400000       0.744065
     1544.500000       0.744517
     1544.600000       0.744971
     1544.700000       0.745424
     1544.800000       0.745876
     1544.900000       0.746329
     1545.000000       0.746782
     1545.100000       0.747236
     1545.200000       0.747688
     1545.300000       0.748140
     1545.400000       0.748593
     1545.500000       0.749045
     1545.600000       0.749494
     1545.700000       0.750026
     1545.800000       0.750636
     1545.900000       0.751237
     1546.000000       0.751839
     1546.100000       0.752442
     1546.200000       0.753043
     1546.300000       0.753645
     1546.400000       0.754247
     1546.500000       0.754849
     1546.600000       0.755451
     1546.700000       0.756053
     1546.800000       0.756655
     1546.900000       0.757256
     1547.000000       0.757858
     1547.100000       0.758460
     1547.200000       0.759062
     1547.300000       0.759664
     1547.400000       0.760265
     1547.500000       0.760867
     1547.600000       0.761470
     1547.700000       0.762071
     1547.800000       0.762673
     1547.900000       0.763275
     1548.000000       0.763877
     1548.100000       0.764528
     1548.200000       0.765220
     1548.300000       0.765908
     1548.400000       0.766595
     1548.500000       0.767282
     1548.600000       0.767971
     1548.700000       0.768658
     1548.800000       0.769345
     1548.900000       0.770033
     1549.000000       0.770720
     1549.100000       0.771408
     1549.200000       0.772095
     1549.300000       0.772783
     1549.400000       0.773470
     1549.500000       0.774158
     1549.600000       0.774846
     1549.700000       0.775533
     1549.800000       0.776221
     1549.900000       0.776908
     1550.000000       0.777595
     1550.100000       0.778284
     1550.200000       0.778971
     1550.300000       0.779658
     1550.400000       0.780345
     1550.500000       0.781036
     1550.600000       0.781731
     1550.700000       0.782424
     1550.800000       0.783118
     1550.900000       0.783812
     1551.000000       0.784505
     1551.100000       0.785200
     1551.200000       0.785893
     1551.300000       0.786587
     1551.400000       0.787280
     1551.500000       0.787974
     1551.600000       0.788668
     1551.700000       0.789361
     1551.800000       0.790055
     1551.900000       0.790748
     1552.000000       0.791442
     1552.100000       0.792136
     1552.200000       0.792830
     1552.300000       0.793523
     1552.400000       0.794217
     1552.500000       0.794910
     1552.600000       0.795605
     1552.700000       0.796304
     1552.800000       0.797058
     1552.900000       0.796764
     1553.000000       0.795482
     1553.100000       0.794308
     1553.200000       0.793137
     1553.300000       0.791965
     1553.400000       0.790794
     1553.500000       0.789623
     1553.600000       0.788449
     1553.700000       0.787277
     1553.800000       0.786105
     1553.900000       0.784934
     1554.000000       0.783763
     1554.100000       0.782589
     1554.200000       0.781418
     1554.300000       0.780246
     1554.400000       0.779074
     1554.500000       0.777902
     1554.600000       0.776729
     1554.700000       0.775558
     1554.800000       0.774386
     1554.900000       0.773215
     1555.000000       0.772043
     1555.100000       0.770870
     1555.200000       0.769743
     1555.300000       0.768220
     1555.400000       0.766258
     1555.500000       0.764297
     1555.600000       0.762338
     1555.700000       0.760382
     1555.800000       0.758426
     1555.900000       0.756470
     1556.000000       0.754514
     1556.100000       0.752555
     1556.200000       0.750599
     1556.300000       0.748643
     1556.400000       0.746687
     1556.500000       0.744731
     1556.600000       0.742772
     1556.700000       0.740816
     1556.800000       0.738860
     1556.900000       0.736904
     1557.000000       0.734948
     1557.100000       0.732989
     1557.200000       0.731033
     1557.300000       0.729077
     1557.400000       0.727121
     1557.500000       0.725165
     1557.600000       0.723207
     1557.700000       0.721246
     1557.800000       0.719277
     1557.900000       0.717306
     1558.000000       0.715336
     1558.100000       0.713362
     1558.200000       0.711391
     1558.300000       0.709420
     1558.400000       0.707450
     1558.500000       0.705480
     1558.600000       0.703506
     1558.700000       0.701535
     1558.800000       0.699565
     1558.900000       0.697593
     1559.000000       0.695623
     1559.100000       0.693649
     1559.200000       0.691679
     1559.300000       0.689708
     1559.400000       0.687737
     1559.500000       0.685767
     1559.600000       0.683793
     1559.700000       0.681822
     1559.800000       0.679851
     1559.900000       0.677881
     1560.000000       0.675960
     1560.100000       0.673673
     1560.200000       0.670229
     1560.300000       0.666113
     1560.400000       0.662077
     1560.500000       0.658043
     1560.600000       0.654001
     1560.700000       0.649966
     1560.800000       0.645930
     1560.900000       0.641895
     1561.000000       0.637860
     1561.100000       0.633818
     1561.200000       0.629784
     1561.300000       0.625748
     1561.400000       0.621713
     1561.500000       0.617677
     1561.600000       0.613635
     1561.700000       0.609600
     1561.800000       0.605565
     1561.900000       0.601530
     1562.000000       0.597495
     1562.100000       0.593453
     1562.200000       0.589418
     1562.300000       0.585383
     1562.400000       0.581347
     1562.500000       0.577451
     1562.600000       0.572277
     1562.700000       0.565849
     1562.800000       0.559560
     1562.900000       0.553272
     1563.000000       0.546984
     1563.100000       0.540685
     1563.200000       0.534398
     1563.300000       0.528109
     1563.400000       0.521821
     1563.500000       0.515533
     1563.600000       0.509234
     1563.700000       0.502947
     1563.800000       0.496658
     1563.900000       0.490370
     1564.000000       0.484082
     1564.100000       0.477783
     1564.200000       0.471496
     1564.300000       0.465207
     1564.400000       0.458918
     1564.500000       0.452630
     1564.600000       0.446332
     1564.700000       0.440045
     1564.800000       0.433756
     1564.900000       0.427357
     1565.000000       0.421861
     1565.100000       0.418155
     1565.200000       0.415151
     1565.300000       0.412058
     1565.400000       0.408964
     1565.500000       0.405871
     1565.600000       0.402773
     1565.700000       0.399679
     1565.800000       0.396586
     1565.900000       0.393492
     1566.000000       0.390399
     1566.100000       0.387302
     1566.200000       0.384209
     1566.300000       0.381114
     1566.400000       0.378021
     1566.500000       0.374928
     1566.600000       0.371829
     1566.700000       0.368736
     1566.800000       0.365643
     1566.900000       0.362549
     1567.000000       0.359456
     1567.100000       0.356358
     1567.200000       0.353264
     1567.300000       0.350171
     1567.400000       0.347079
     1567.500000       0.343970
     1567.600000       0.340839
     1567.700000       0.337716
     1567.800000       0.334591
     1567.900000       0.331466
     1568.000000       0.328343
     1568.100000       0.325213
     1568.200000       0.322089
     1568.300000       0.318966
     1568.400000       0.315841
     1568.500000       0.312717
     1568.600000       0.309588
     1568.700000       0.306464
     1568.800000       0.303339
     1568.900000       0.300215
     1569.000000       0.297091
     1569.100000       0.293962
     1569.200000       0.290838
     1569.300000       0.287714
     1569.400000       0.284590
     1569.500000       0.281466
     1569.600000       0.278336
     1569.700000       0.275213
     1569.800000       0.272089
     1569.900000       0.268961
     1570.000000       0.265823
     1570.100000       0.262675
     1570.200000       0.259532
     1570.300000       0.256389
     1570.400000       0.253246
     1570.500000       0.250103
     1570.600000       0.246955
     1570.700000       0.243812
     1570.800000       0.240669
     1570.900000       0.237526
     1571.000000       0.234384
     1571.100000       0.231236
     1571.200000       0.228093
     1571.300000       0.224950
     1571.400000       0.221807
     1571.500000       0.218664
     1571.600000       0.215516
     1571.700000       0.212373
     1571.800000       0.209230
     1571.900000       0.206087
     1572.000000       0.202945
     1572.100000       0.199797
     1572.200000       0.196654
     1572.300000       0.193511
     1572.400000       0.190359
     1572.500000       0.187193
     1572.600000       0.184018
     1572.700000       0.180849
     1572.800000       0.177679
     1572.900000       0.174510
     1573.000000       0.171340
     1573.100000       0.168166
     1573.200000       0.164997
     1573.300000       0.161827
     1573.400000       0.158658
     1573.500000       0.155489
     1573.600000       0.152314
     1573.700000       0.149145
     1573.800000       0.145975
     1573.900000       0.142806
     1574.000000       0.139637
     1574.100000       0.136462
     1574.200000       0.133293
     1574.300000       0.130124
     1574.400000       0.126954
     1574.500000       0.123785
     1574.600000       0.120611
     1574.700000       0.117442
     1574.800000       0.114223
     1574.900000       0.111444
     1575.000000       0.109120
     1575.100000       0.106756
     1575.200000       0.104393
     1575.300000       0.102030
     1575.400000       0.099668
     1575.500000       0.097305
     1575.600000       0.094939
     1575.700000       0.092577
     1575.800000       0.090214
     1575.900000       0.087851
     1576.000000       0.085489
     1576.100000       0.083123
     1576.200000       0.080761
     1576.300000       0.078398
     1576.400000       0.076035
     1576.500000       0.073673
     1576.600000       0.071307
     1576.700000       0.068944
     1576.800000       0.066582
     1576.900000       0.064219
     1577.000000       0.061857
     1577.100000       0.059491
     1577.200000       0.057113
     1577.300000       0.054774
     1577.400000       0.053438
     1577.500000       0.052956
     1577.600000       0.052378
     1577.700000       0.051800
     1577.800000       0.051222
     1577.900000       0.050644
     1578.000000       0.050067
     1578.100000       0.049488
     1578.200000       0.048910
     1578.300000       0.048333
     1578.400000       0.047755
     1578.500000       0.047178
     1578.600000       0.046599
     1578.700000       0.046021
     1578.800000       0.045444
     1578.900000       0.044866
     1579.000000       0.044288
     1579.100000       0.043710
     1579.200000       0.043132
     1579.300000       0.042554
     1579.400000       0.041976
     1579.500000       0.041399
     1579.600000       0.040820
     1579.700000       0.040241
     1579.800000       0.039670
     1579.900000       0.039155
     1580.000000       0.038684
     1580.100000       0.038207
     1580.200000       0.037731
     1580.300000       0.037255
     1580.400000       0.036779
     1580.500000       0.036304
     1580.600000       0.035827
     1580.700000       0.035351
     1580.800000       0.034875
     1580.900000       0.034400
     1581.000000       0.033924
     1581.100000       0.033446
     1581.200000       0.032970
     1581.300000       0.032494
     1581.400000       0.032018
     1581.500000       0.031543
     1581.600000       0.031066
     1581.700000       0.030591
     1581.800000       0.030114
     1581.900000       0.029638
     1582.000000       0.029163
     1582.100000       0.028685
     1582.200000       0.028206
     1582.300000       0.027745
     1582.400000       0.027417
     1582.500000       0.027189
     1582.600000       0.026949
     1582.700000       0.026711
     1582.800000       0.026471
     1582.900000       0.026231
     1583.000000       0.025993
     1583.100000       0.025753
     1583.200000       0.025513
     1583.300000       0.025274
     1583.400000       0.025036
     1583.500000       0.024796
     1583.600000       0.024556
     1583.700000       0.024318
     1583.800000       0.024078
     1583.900000       0.023838
     1584.000000       0.023600
     1584.100000       0.023360
     1584.200000       0.023121
     1584.300000       0.022882
     1584.400000       0.022642
     1584.500000       0.022404
     1584.600000       0.022164
     1584.700000       0.021924
     1584.800000       0.021685
     1584.900000       0.021442
     1585.000000       0.021195
     1585.100000       0.020948
     1585.200000       0.020702
     1585.300000       0.020455
     1585.400000       0.020209
     1585.500000       0.019962
     1585.600000       0.019716
     1585.700000       0.019470
     1585.800000       0.019223
     1585.900000       0.018977
     1586.000000       0.018731
     1586.100000       0.018483
     1586.200000       0.018237
     1586.300000       0.017991
     1586.400000       0.017745
     1586.500000       0.017499
     1586.600000       0.017251
     1586.700000       0.017005
     1586.800000       0.016758
     1586.900000       0.016512
     1587.000000       0.016266
     1587.100000       0.016019
     1587.200000       0.015773
     1587.300000       0.015527
