10,    channel 10 SRF extracted from SRF_FY4B_AGRI.zip (FY4B_AGRI_SRF_CH10_Pub.txt)
Number of data points:
2544
Wavenumber (cm-1)   Filter response
     1312.249900       0.000600
     1312.336000       0.000600
     1312.422100       0.000600
     1312.508200       0.000500
     1312.594300       0.000500
     1312.680500       0.000500
     1312.766700       0.000500
     1312.852800       0.000500
     1312.939000       0.000500
     1313.025200       0.000500
     1313.111400       0.000500
     1313.197600       0.000400
     1313.283900       0.000400
     1313.370100       0.000400
     1313.456400       0.000400
     1313.542600       0.000400
     1313.628900       0.000400
     1313.715200       0.000400
     1313.801500       0.000400
     1313.887800       0.000300
     1313.974100       0.000300
     1314.060400       0.000300
     1314.146800       0.000300
     1314.233100       0.000300
     1314.319500       0.000300
     1314.405900       0.000300
     1314.492300       0.000300
     1314.578700       0.000300
     1314.665100       0.000300
     1314.751500       0.000300
     1314.837900       0.000200
     1314.924400       0.000200
     1315.010800       0.000200
     1315.097300       0.000200
     1315.183800       0.000200
     1315.270300       0.000200
     1315.356800       0.000200
     1315.443300       0.000300
     1315.529800       0.000300
     1315.616400       0.000300
     1315.702900       0.000300
     1315.789500       0.000300
     1315.876000       0.000300
     1315.962600       0.000300
     1316.049200       0.000300
     1316.135800       0.000300
     1316.222400       0.000300
     1316.309100       0.000400
     1316.395700       0.000400
     1316.482400       0.000400
     1316.569000       0.000400
     1316.655700       0.000400
     1316.742400       0.000400
     1316.829100       0.000500
     1316.915800       0.000500
     1317.002500       0.000500
     1317.089200       0.000500
     1317.176000       0.000500
     1317.262700       0.000500
     1317.349500       0.000600
     1317.436300       0.000600
     1317.523100       0.000600
     1317.609900       0.000600
     1317.696700       0.000600
     1317.783500       0.000600
     1317.870300       0.000700
     1317.957200       0.000700
     1318.044000       0.000700
     1318.130900       0.000700
     1318.217800       0.000700
     1318.304700       0.000700
     1318.391600       0.000800
     1318.478500       0.000800
     1318.565400       0.000800
     1318.652300       0.000800
     1318.739300       0.000800
     1318.826200       0.000800
     1318.913200       0.000800
     1319.000200       0.000800
     1319.087200       0.000800
     1319.174200       0.000800
     1319.261200       0.000800
     1319.348200       0.000800
     1319.435300       0.000800
     1319.522300       0.000800
     1319.609400       0.000800
     1319.696500       0.000800
     1319.783600       0.000800
     1319.870700       0.000800
     1319.957800       0.000800
     1320.044900       0.000800
     1320.132000       0.000800
     1320.219200       0.000800
     1320.306300       0.000700
     1320.393500       0.000700
     1320.480700       0.000700
     1320.567800       0.000700
     1320.655000       0.000700
     1320.742300       0.000700
     1320.829500       0.000700
     1320.916700       0.000700
     1321.004000       0.000600
     1321.091200       0.000600
     1321.178500       0.000600
     1321.265800       0.000600
     1321.353100       0.000600
     1321.440400       0.000600
     1321.527700       0.000600
     1321.615000       0.000600
     1321.702400       0.000600
     1321.789700       0.000500
     1321.877100       0.000500
     1321.964400       0.000500
     1322.051800       0.000500
     1322.139200       0.000500
     1322.226600       0.000500
     1322.314000       0.000500
     1322.401500       0.000500
     1322.488900       0.000500
     1322.576400       0.000500
     1322.663800       0.000500
     1322.751300       0.000500
     1322.838800       0.000500
     1322.926300       0.000500
     1323.013800       0.000500
     1323.101300       0.000500
     1323.188900       0.000500
     1323.276400       0.000500
     1323.364000       0.000500
     1323.451600       0.000500
     1323.539100       0.000500
     1323.626700       0.000600
     1323.714300       0.000600
     1323.802000       0.000600
     1323.889600       0.000600
     1323.977200       0.000600
     1324.064900       0.000600
     1324.152500       0.000700
     1324.240200       0.000700
     1324.327900       0.000700
     1324.415600       0.000700
     1324.503300       0.000700
     1324.591000       0.000700
     1324.678800       0.000800
     1324.766500       0.000800
     1324.854300       0.000800
     1324.942000       0.000800
     1325.029800       0.000800
     1325.117600       0.000900
     1325.205400       0.000900
     1325.293200       0.000900
     1325.381000       0.000900
     1325.468900       0.000900
     1325.556700       0.001000
     1325.644600       0.001000
     1325.732500       0.001000
     1325.820400       0.001000
     1325.908200       0.001000
     1325.996200       0.001000
     1326.084100       0.001000
     1326.172000       0.001100
     1326.259900       0.001100
     1326.347900       0.001100
     1326.435900       0.001100
     1326.523800       0.001100
     1326.611800       0.001100
     1326.699800       0.001100
     1326.787800       0.001100
     1326.875900       0.001100
     1326.963900       0.001100
     1327.052000       0.001100
     1327.140000       0.001100
     1327.228100       0.001100
     1327.316200       0.001100
     1327.404300       0.001100
     1327.492400       0.001100
     1327.580500       0.001100
     1327.668600       0.001100
     1327.756800       0.001100
     1327.844900       0.001000
     1327.933100       0.001000
     1328.021200       0.001000
     1328.109400       0.001000
     1328.197600       0.001000
     1328.285800       0.001000
     1328.374100       0.001000
     1328.462300       0.001000
     1328.550600       0.000900
     1328.638800       0.000900
     1328.727100       0.000900
     1328.815400       0.000900
     1328.903700       0.000900
     1328.992000       0.000900
     1329.080300       0.000900
     1329.168600       0.000800
     1329.256900       0.000800
     1329.345300       0.000800
     1329.433700       0.000800
     1329.522000       0.000800
     1329.610400       0.000800
     1329.698800       0.000800
     1329.787200       0.000800
     1329.875700       0.000800
     1329.964100       0.000700
     1330.052500       0.000700
     1330.141000       0.000700
     1330.229500       0.000700
     1330.317900       0.000700
     1330.406400       0.000700
     1330.494900       0.000700
     1330.583500       0.000700
     1330.672000       0.000700
     1330.760500       0.000700
     1330.849100       0.000700
     1330.937600       0.000700
     1331.026200       0.000800
     1331.114800       0.000800
     1331.203400       0.000800
     1331.292000       0.000800
     1331.380600       0.000800
     1331.469300       0.000800
     1331.557900       0.000800
     1331.646600       0.000800
     1331.735300       0.000900
     1331.823900       0.000900
     1331.912600       0.000900
     1332.001300       0.000900
     1332.090000       0.000900
     1332.178800       0.001000
     1332.267500       0.001000
     1332.356300       0.001000
     1332.445000       0.001000
     1332.533800       0.001000
     1332.622600       0.001100
     1332.711400       0.001100
     1332.800200       0.001100
     1332.889000       0.001100
     1332.977900       0.001100
     1333.066700       0.001200
     1333.155600       0.001200
     1333.244500       0.001200
     1333.333300       0.001200
     1333.422200       0.001200
     1333.511100       0.001200
     1333.600100       0.001300
     1333.689000       0.001300
     1333.777900       0.001300
     1333.866900       0.001300
     1333.955800       0.001300
     1334.044800       0.001300
     1334.133800       0.001300
     1334.222800       0.001400
     1334.311800       0.001400
     1334.400900       0.001400
     1334.489900       0.001400
     1334.578900       0.001400
     1334.668000       0.001400
     1334.757100       0.001400
     1334.846200       0.001400
     1334.935300       0.001400
     1335.024400       0.001400
     1335.113500       0.001400
     1335.202600       0.001400
     1335.291800       0.001400
     1335.380900       0.001400
     1335.470100       0.001400
     1335.559300       0.001300
     1335.648500       0.001300
     1335.737700       0.001300
     1335.826900       0.001300
     1335.916100       0.001300
     1336.005300       0.001300
     1336.094600       0.001300
     1336.183900       0.001300
     1336.273100       0.001300
     1336.362400       0.001300
     1336.451700       0.001200
     1336.541000       0.001200
     1336.630400       0.001200
     1336.719700       0.001200
     1336.809000       0.001200
     1336.898400       0.001200
     1336.987800       0.001200
     1337.077100       0.001200
     1337.166500       0.001200
     1337.256000       0.001200
     1337.345400       0.001200
     1337.434800       0.001200
     1337.524200       0.001100
     1337.613700       0.001100
     1337.703200       0.001100
     1337.792600       0.001100
     1337.882100       0.001100
     1337.971600       0.001100
     1338.061100       0.001100
     1338.150700       0.001100
     1338.240200       0.001200
     1338.329800       0.001200
     1338.419300       0.001200
     1338.508900       0.001200
     1338.598500       0.001200
     1338.688100       0.001200
     1338.777700       0.001200
     1338.867300       0.001200
     1338.957000       0.001300
     1339.046600       0.001300
     1339.136300       0.001300
     1339.225900       0.001300
     1339.315600       0.001300
     1339.405300       0.001400
     1339.495000       0.001400
     1339.584700       0.001400
     1339.674500       0.001400
     1339.764200       0.001500
     1339.854000       0.001500
     1339.943700       0.001500
     1340.033500       0.001500
     1340.123300       0.001600
     1340.213100       0.001600
     1340.302900       0.001600
     1340.392700       0.001700
     1340.482600       0.001700
     1340.572400       0.001700
     1340.662300       0.001700
     1340.752200       0.001800
     1340.842000       0.001800
     1340.931900       0.001800
     1341.021900       0.001800
     1341.111800       0.001900
     1341.201700       0.001900
     1341.291700       0.001900
     1341.381600       0.001900
     1341.471600       0.002000
     1341.561600       0.002000
     1341.651600       0.002000
     1341.741600       0.002000
     1341.831600       0.002000
     1341.921600       0.002100
     1342.011700       0.002100
     1342.101700       0.002100
     1342.191800       0.002100
     1342.281900       0.002100
     1342.372000       0.002100
     1342.462100       0.002100
     1342.552200       0.002100
     1342.642300       0.002100
     1342.732500       0.002100
     1342.822600       0.002100
     1342.912800       0.002100
     1343.003000       0.002100
     1343.093100       0.002100
     1343.183300       0.002100
     1343.273600       0.002100
     1343.363800       0.002100
     1343.454000       0.002100
     1343.544300       0.002100
     1343.634500       0.002100
     1343.724800       0.002100
     1343.815100       0.002000
     1343.905400       0.002000
     1343.995700       0.002000
     1344.086000       0.002000
     1344.176400       0.002000
     1344.266700       0.002000
     1344.357100       0.002000
     1344.447400       0.002000
     1344.537800       0.002000
     1344.628200       0.001900
     1344.718600       0.001900
     1344.809000       0.001900
     1344.899500       0.001900
     1344.989900       0.001900
     1345.080400       0.001900
     1345.170800       0.001900
     1345.261300       0.001900
     1345.351800       0.001900
     1345.442300       0.001900
     1345.532800       0.001900
     1345.623400       0.001900
     1345.713900       0.001900
     1345.804500       0.001900
     1345.895000       0.001900
     1345.985600       0.001900
     1346.076200       0.001900
     1346.166800       0.001900
     1346.257400       0.001900
     1346.348000       0.001900
     1346.438700       0.002000
     1346.529300       0.002000
     1346.620000       0.002000
     1346.710700       0.002000
     1346.801300       0.002000
     1346.892000       0.002100
     1346.982800       0.002100
     1347.073500       0.002100
     1347.164200       0.002100
     1347.255000       0.002200
     1347.345700       0.002200
     1347.436500       0.002200
     1347.527300       0.002200
     1347.618100       0.002300
     1347.708900       0.002300
     1347.799700       0.002300
     1347.890600       0.002400
     1347.981400       0.002400
     1348.072300       0.002400
     1348.163100       0.002400
     1348.254000       0.002500
     1348.344900       0.002500
     1348.435800       0.002500
     1348.526700       0.002600
     1348.617700       0.002600
     1348.708600       0.002600
     1348.799600       0.002700
     1348.890500       0.002700
     1348.981500       0.002700
     1349.072500       0.002700
     1349.163500       0.002800
     1349.254500       0.002800
     1349.345600       0.002800
     1349.436600       0.002800
     1349.527700       0.002900
     1349.618700       0.002900
     1349.709800       0.002900
     1349.800900       0.002900
     1349.892000       0.002900
     1349.983100       0.003000
     1350.074300       0.003000
     1350.165400       0.003000
     1350.256500       0.003000
     1350.347700       0.003000
     1350.438900       0.003000
     1350.530100       0.003000
     1350.621300       0.003000
     1350.712500       0.003000
     1350.803700       0.003000
     1350.895000       0.003000
     1350.986200       0.003000
     1351.077500       0.003000
     1351.168800       0.003000
     1351.260000       0.003000
     1351.351400       0.003000
     1351.442700       0.003000
     1351.534000       0.003000
     1351.625300       0.003000
     1351.716700       0.003000
     1351.808000       0.003000
     1351.899400       0.003000
     1351.990800       0.003000
     1352.082200       0.003000
     1352.173600       0.003000
     1352.265000       0.003000
     1352.356500       0.003100
     1352.447900       0.003100
     1352.539400       0.003100
     1352.630900       0.003100
     1352.722400       0.003100
     1352.813900       0.003100
     1352.905400       0.003100
     1352.996900       0.003100
     1353.088400       0.003100
     1353.180000       0.003100
     1353.271500       0.003100
     1353.363100       0.003100
     1353.454700       0.003100
     1353.546300       0.003200
     1353.637900       0.003200
     1353.729500       0.003200
     1353.821200       0.003200
     1353.912800       0.003200
     1354.004500       0.003300
     1354.096100       0.003300
     1354.187800       0.003300
     1354.279500       0.003300
     1354.371200       0.003400
     1354.463000       0.003400
     1354.554700       0.003400
     1354.646400       0.003500
     1354.738200       0.003500
     1354.830000       0.003500
     1354.921800       0.003600
     1355.013600       0.003600
     1355.105400       0.003700
     1355.197200       0.003700
     1355.289000       0.003700
     1355.380900       0.003800
     1355.472700       0.003800
     1355.564600       0.003900
     1355.656500       0.003900
     1355.748400       0.004000
     1355.840300       0.004000
     1355.932200       0.004000
     1356.024100       0.004100
     1356.116100       0.004100
     1356.208000       0.004200
     1356.300000       0.004200
     1356.392000       0.004300
     1356.484000       0.004300
     1356.576000       0.004300
     1356.668000       0.004400
     1356.760100       0.004400
     1356.852100       0.004500
     1356.944200       0.004500
     1357.036200       0.004500
     1357.128300       0.004600
     1357.220400       0.004600
     1357.312500       0.004600
     1357.404600       0.004700
     1357.496800       0.004700
     1357.588900       0.004700
     1357.681100       0.004700
     1357.773300       0.004800
     1357.865400       0.004800
     1357.957600       0.004800
     1358.049800       0.004800
     1358.142100       0.004900
     1358.234300       0.004900
     1358.326500       0.004900
     1358.418800       0.004900
     1358.511100       0.004900
     1358.603400       0.004900
     1358.695700       0.005000
     1358.788000       0.005000
     1358.880300       0.005000
     1358.972600       0.005000
     1359.065000       0.005000
     1359.157300       0.005000
     1359.249700       0.005000
     1359.342100       0.005000
     1359.434500       0.005100
     1359.526900       0.005100
     1359.619300       0.005100
     1359.711700       0.005100
     1359.804200       0.005100
     1359.896600       0.005100
     1359.989100       0.005100
     1360.081600       0.005200
     1360.174100       0.005200
     1360.266600       0.005200
     1360.359100       0.005200
     1360.451700       0.005200
     1360.544200       0.005300
     1360.636800       0.005300
     1360.729400       0.005300
     1360.821900       0.005300
     1360.914500       0.005400
     1361.007100       0.005400
     1361.099800       0.005400
     1361.192400       0.005400
     1361.285100       0.005500
     1361.377700       0.005500
     1361.470400       0.005600
     1361.563100       0.005600
     1361.655800       0.005600
     1361.748500       0.005700
     1361.841200       0.005700
     1361.933900       0.005800
     1362.026700       0.005800
     1362.119500       0.005900
     1362.212200       0.005900
     1362.305000       0.006000
     1362.397800       0.006100
     1362.490600       0.006100
     1362.583500       0.006200
     1362.676300       0.006300
     1362.769100       0.006300
     1362.862000       0.006400
     1362.954900       0.006400
     1363.047800       0.006500
     1363.140700       0.006600
     1363.233600       0.006700
     1363.326500       0.006700
     1363.419500       0.006800
     1363.512400       0.006900
     1363.605400       0.006900
     1363.698300       0.007000
     1363.791300       0.007100
     1363.884300       0.007100
     1363.977400       0.007200
     1364.070400       0.007300
     1364.163400       0.007400
     1364.256500       0.007400
     1364.349500       0.007500
     1364.442600       0.007600
     1364.535700       0.007600
     1364.628800       0.007700
     1364.721900       0.007800
     1364.815100       0.007800
     1364.908200       0.007900
     1365.001400       0.007900
     1365.094500       0.008000
     1365.187700       0.008100
     1365.280900       0.008100
     1365.374100       0.008200
     1365.467300       0.008200
     1365.560600       0.008300
     1365.653800       0.008300
     1365.747100       0.008400
     1365.840300       0.008400
     1365.933600       0.008500
     1366.026900       0.008500
     1366.120200       0.008600
     1366.213500       0.008600
     1366.306900       0.008600
     1366.400200       0.008700
     1366.493600       0.008700
     1366.586900       0.008800
     1366.680300       0.008800
     1366.773700       0.008900
     1366.867100       0.008900
     1366.960600       0.008900
     1367.054000       0.009000
     1367.147400       0.009000
     1367.240900       0.009100
     1367.334400       0.009100
     1367.427900       0.009100
     1367.521400       0.009200
     1367.614900       0.009200
     1367.708400       0.009300
     1367.801900       0.009300
     1367.895500       0.009400
     1367.989100       0.009400
     1368.082600       0.009500
     1368.176200       0.009500
     1368.269800       0.009600
     1368.363400       0.009700
     1368.457100       0.009700
     1368.550700       0.009800
     1368.644400       0.009800
     1368.738000       0.009900
     1368.831700       0.010000
     1368.925400       0.010100
     1369.019100       0.010100
     1369.112800       0.010200
     1369.206500       0.010300
     1369.300300       0.010400
     1369.394000       0.010500
     1369.487800       0.010600
     1369.581600       0.010700
     1369.675400       0.010700
     1369.769200       0.010800
     1369.863000       0.011000
     1369.956800       0.011100
     1370.050700       0.011200
     1370.144600       0.011300
     1370.238400       0.011400
     1370.332300       0.011500
     1370.426200       0.011600
     1370.520100       0.011700
     1370.614000       0.011900
     1370.708000       0.012000
     1370.801900       0.012100
     1370.895900       0.012200
     1370.989900       0.012400
     1371.083800       0.012500
     1371.177800       0.012600
     1371.271900       0.012800
     1371.365900       0.012900
     1371.459900       0.013100
     1371.554000       0.013200
     1371.648000       0.013300
     1371.742100       0.013500
     1371.836200       0.013600
     1371.930300       0.013800
     1372.024400       0.013900
     1372.118600       0.014100
     1372.212700       0.014200
     1372.306800       0.014300
     1372.401000       0.014500
     1372.495200       0.014600
     1372.589400       0.014800
     1372.683600       0.014900
     1372.777800       0.015100
     1372.872000       0.015200
     1372.966300       0.015400
     1373.060600       0.015500
     1373.154800       0.015700
     1373.249100       0.015800
     1373.343400       0.016000
     1373.437700       0.016100
     1373.532000       0.016300
     1373.626400       0.016400
     1373.720700       0.016600
     1373.815100       0.016700
     1373.909500       0.016900
     1374.003800       0.017000
     1374.098200       0.017200
     1374.192700       0.017400
     1374.287100       0.017500
     1374.381500       0.017700
     1374.476000       0.017800
     1374.570400       0.018000
     1374.664900       0.018200
     1374.759400       0.018300
     1374.853900       0.018500
     1374.948400       0.018700
     1375.043000       0.018800
     1375.137500       0.019000
     1375.232100       0.019200
     1375.326600       0.019400
     1375.421200       0.019500
     1375.515800       0.019700
     1375.610400       0.019900
     1375.705000       0.020100
     1375.799700       0.020300
     1375.894300       0.020500
     1375.989000       0.020700
     1376.083700       0.020900
     1376.178400       0.021100
     1376.273100       0.021300
     1376.367800       0.021500
     1376.462500       0.021800
     1376.557200       0.022000
     1376.652000       0.022200
     1376.746700       0.022400
     1376.841500       0.022700
     1376.936300       0.022900
     1377.031100       0.023200
     1377.125900       0.023400
     1377.220800       0.023700
     1377.315600       0.023900
     1377.410500       0.024200
     1377.505300       0.024500
     1377.600200       0.024700
     1377.695100       0.025000
     1377.790000       0.025300
     1377.884900       0.025600
     1377.979900       0.025900
     1378.074800       0.026100
     1378.169800       0.026400
     1378.264800       0.026700
     1378.359800       0.027000
     1378.454800       0.027400
     1378.549800       0.027700
     1378.644800       0.028000
     1378.739800       0.028300
     1378.834900       0.028600
     1378.930000       0.028900
     1379.025000       0.029300
     1379.120100       0.029600
     1379.215200       0.029900
     1379.310300       0.030300
     1379.405500       0.030600
     1379.500600       0.031000
     1379.595800       0.031300
     1379.690900       0.031700
     1379.786100       0.032000
     1379.881300       0.032400
     1379.976500       0.032700
     1380.071800       0.033100
     1380.167000       0.033400
     1380.262200       0.033800
     1380.357500       0.034200
     1380.452800       0.034500
     1380.548100       0.034900
     1380.643400       0.035300
     1380.738700       0.035700
     1380.834000       0.036000
     1380.929400       0.036400
     1381.024700       0.036800
     1381.120100       0.037200
     1381.215500       0.037600
     1381.310900       0.038000
     1381.406300       0.038400
     1381.501700       0.038800
     1381.597100       0.039200
     1381.692600       0.039600
     1381.788000       0.040000
     1381.883500       0.040400
     1381.979000       0.040800
     1382.074500       0.041300
     1382.170000       0.041700
     1382.265500       0.042200
     1382.361100       0.042600
     1382.456600       0.043100
     1382.552200       0.043600
     1382.647800       0.044000
     1382.743400       0.044500
     1382.839000       0.045000
     1382.934600       0.045600
     1383.030200       0.046100
     1383.125900       0.046600
     1383.221500       0.047200
     1383.317200       0.047700
     1383.412900       0.048300
     1383.508600       0.048900
     1383.604300       0.049500
     1383.700000       0.050100
     1383.795800       0.050700
     1383.891500       0.051300
     1383.987300       0.052000
     1384.083000       0.052600
     1384.178800       0.053300
     1384.274600       0.054000
     1384.370500       0.054700
     1384.466300       0.055500
     1384.562100       0.056200
     1384.658000       0.057000
     1384.753900       0.057800
     1384.849700       0.058600
     1384.945600       0.059400
     1385.041600       0.060200
     1385.137500       0.061100
     1385.233400       0.061900
     1385.329400       0.062800
     1385.425300       0.063700
     1385.521300       0.064600
     1385.617300       0.065600
     1385.713300       0.066500
     1385.809300       0.067500
     1385.905300       0.068500
     1386.001400       0.069500
     1386.097400       0.070500
     1386.193500       0.071500
     1386.289600       0.072500
     1386.385700       0.073600
     1386.481800       0.074600
     1386.577900       0.075700
     1386.674100       0.076800
     1386.770200       0.077900
     1386.866400       0.079000
     1386.962600       0.080200
     1387.058700       0.081300
     1387.154900       0.082500
     1387.251200       0.083700
     1387.347400       0.084800
     1387.443600       0.086000
     1387.539900       0.087200
     1387.636200       0.088500
     1387.732400       0.089700
     1387.828700       0.090900
     1387.925100       0.092200
     1388.021400       0.093400
     1388.117700       0.094700
     1388.214100       0.096000
     1388.310400       0.097300
     1388.406800       0.098600
     1388.503200       0.099900
     1388.599600       0.101200
     1388.696000       0.102500
     1388.792400       0.103900
     1388.888900       0.105200
     1388.985300       0.106600
     1389.081800       0.108000
     1389.178300       0.109400
     1389.274800       0.110800
     1389.371300       0.112200
     1389.467800       0.113700
     1389.564400       0.115100
     1389.660900       0.116600
     1389.757500       0.118100
     1389.854100       0.119600
     1389.950700       0.121200
     1390.047300       0.122700
     1390.143900       0.124300
     1390.240500       0.125900
     1390.337200       0.127600
     1390.433800       0.129200
     1390.530500       0.130900
     1390.627200       0.132700
     1390.723900       0.134400
     1390.820600       0.136200
     1390.917300       0.138000
     1391.014000       0.139900
     1391.110800       0.141800
     1391.207600       0.143700
     1391.304300       0.145600
     1391.401100       0.147600
     1391.497900       0.149600
     1391.594800       0.151700
     1391.691600       0.153800
     1391.788400       0.155900
     1391.885300       0.158100
     1391.982200       0.160300
     1392.079100       0.162600
     1392.176000       0.164900
     1392.272900       0.167300
     1392.369800       0.169700
     1392.466800       0.172100
     1392.563700       0.174600
     1392.660700       0.177100
     1392.757700       0.179700
     1392.854700       0.182400
     1392.951700       0.185000
     1393.048700       0.187700
     1393.145700       0.190500
     1393.242800       0.193300
     1393.339800       0.196200
     1393.436900       0.199100
     1393.534000       0.202000
     1393.631100       0.205000
     1393.728200       0.208000
     1393.825400       0.211100
     1393.922500       0.214200
     1394.019700       0.217300
     1394.116800       0.220500
     1394.214000       0.223700
     1394.311200       0.227000
     1394.408400       0.230300
     1394.505600       0.233600
     1394.602900       0.237000
     1394.700100       0.240400
     1394.797400       0.243900
     1394.894700       0.247400
     1394.992000       0.250900
     1395.089300       0.254500
     1395.186600       0.258100
     1395.283900       0.261800
     1395.381300       0.265400
     1395.478600       0.269200
     1395.576000       0.272900
     1395.673400       0.276700
     1395.770800       0.280500
     1395.868200       0.284400
     1395.965700       0.288300
     1396.063100       0.292200
     1396.160600       0.296200
     1396.258000       0.300200
     1396.355500       0.304200
     1396.453000       0.308300
     1396.550500       0.312400
     1396.648000       0.316500
     1396.745600       0.320600
     1396.843100       0.324800
     1396.940700       0.329100
     1397.038300       0.333300
     1397.135900       0.337600
     1397.233500       0.341900
     1397.331100       0.346300
     1397.428700       0.350700
     1397.526400       0.355100
     1397.624000       0.359500
     1397.721700       0.364000
     1397.819400       0.368500
     1397.917100       0.373100
     1398.014800       0.377700
     1398.112500       0.382300
     1398.210300       0.386900
     1398.308000       0.391600
     1398.405800       0.396300
     1398.503600       0.401100
     1398.601400       0.405800
     1398.699200       0.410600
     1398.797000       0.415500
     1398.894900       0.420400
     1398.992700       0.425300
     1399.090600       0.430200
     1399.188500       0.435200
     1399.286400       0.440200
     1399.384300       0.445200
     1399.482200       0.450300
     1399.580100       0.455400
     1399.678100       0.460500
     1399.776000       0.465600
     1399.874000       0.470800
     1399.972000       0.476100
     1400.070000       0.481300
     1400.168000       0.486600
     1400.266100       0.491900
     1400.364100       0.497300
     1400.462200       0.502600
     1400.560200       0.508000
     1400.658300       0.513500
     1400.756400       0.518900
     1400.854500       0.524400
     1400.952600       0.529900
     1401.050800       0.535400
     1401.148900       0.540900
     1401.247100       0.546400
     1401.345300       0.552000
     1401.443500       0.557600
     1401.541700       0.563100
     1401.639900       0.568700
     1401.738200       0.574300
     1401.836400       0.579900
     1401.934700       0.585500
     1402.032900       0.591100
     1402.131200       0.596700
     1402.229500       0.602300
     1402.327900       0.608000
     1402.426200       0.613600
     1402.524500       0.619200
     1402.622900       0.624800
     1402.721300       0.630300
     1402.819700       0.635900
     1402.918100       0.641500
     1403.016500       0.647000
     1403.114900       0.652600
     1403.213400       0.658100
     1403.311800       0.663600
     1403.410300       0.669100
     1403.508800       0.674600
     1403.607300       0.680000
     1403.705800       0.685500
     1403.804300       0.690900
     1403.902800       0.696200
     1404.001400       0.701600
     1404.100000       0.706900
     1404.198600       0.712200
     1404.297100       0.717500
     1404.395800       0.722700
     1404.494400       0.727900
     1404.593000       0.733000
     1404.691700       0.738200
     1404.790300       0.743200
     1404.889000       0.748300
     1404.987700       0.753300
     1405.086400       0.758200
     1405.185100       0.763100
     1405.283900       0.768000
     1405.382600       0.772800
     1405.481400       0.777600
     1405.580200       0.782300
     1405.678900       0.786900
     1405.777700       0.791600
     1405.876600       0.796100
     1405.975400       0.800600
     1406.074200       0.805000
     1406.173100       0.809400
     1406.272000       0.813700
     1406.370900       0.818000
     1406.469800       0.822100
     1406.568700       0.826300
     1406.667600       0.830300
     1406.766500       0.834300
     1406.865500       0.838200
     1406.964500       0.842000
     1407.063500       0.845800
     1407.162500       0.849500
     1407.261500       0.853100
     1407.360500       0.856700
     1407.459500       0.860100
     1407.558600       0.863500
     1407.657700       0.866800
     1407.756700       0.870000
     1407.855800       0.873200
     1407.954900       0.876200
     1408.054100       0.879200
     1408.153200       0.882100
     1408.252400       0.884900
     1408.351500       0.887600
     1408.450700       0.890200
     1408.549900       0.892800
     1408.649100       0.895300
     1408.748300       0.897700
     1408.847600       0.900100
     1408.946800       0.902400
     1409.046100       0.904600
     1409.145400       0.906700
     1409.244600       0.908800
     1409.344000       0.910800
     1409.443300       0.912800
     1409.542600       0.914700
     1409.642000       0.916500
     1409.741300       0.918300
     1409.840700       0.920000
     1409.940100       0.921700
     1410.039500       0.923300
     1410.138900       0.924900
     1410.238300       0.926400
     1410.337800       0.927900
     1410.437200       0.929300
     1410.536700       0.930700
     1410.636200       0.932000
     1410.735700       0.933300
     1410.835200       0.934500
     1410.934700       0.935700
     1411.034300       0.936900
     1411.133800       0.938000
     1411.233400       0.939100
     1411.333000       0.940100
     1411.432600       0.941200
     1411.532200       0.942100
     1411.631800       0.943100
     1411.731500       0.944000
     1411.831100       0.944900
     1411.930800       0.945800
     1412.030500       0.946600
     1412.130200       0.947500
     1412.229900       0.948300
     1412.329600       0.949000
     1412.429400       0.949800
     1412.529100       0.950600
     1412.628900       0.951300
     1412.728700       0.952000
     1412.828500       0.952700
     1412.928300       0.953400
     1413.028100       0.954100
     1413.128000       0.954700
     1413.227800       0.955400
     1413.327700       0.956000
     1413.427600       0.956700
     1413.527500       0.957300
     1413.627400       0.958000
     1413.727300       0.958600
     1413.827200       0.959300
     1413.927200       0.959900
     1414.027100       0.960600
     1414.127100       0.961200
     1414.227100       0.961900
     1414.327100       0.962500
     1414.427200       0.963200
     1414.527200       0.963900
     1414.627200       0.964600
     1414.727300       0.965300
     1414.827400       0.966000
     1414.927500       0.966800
     1415.027600       0.967500
     1415.127700       0.968300
     1415.227900       0.969100
     1415.328000       0.969900
     1415.428200       0.970800
     1415.528300       0.971600
     1415.628500       0.972500
     1415.728700       0.973400
     1415.829000       0.974400
     1415.929200       0.975300
     1416.029500       0.976300
     1416.129700       0.977300
     1416.230000       0.978300
     1416.330300       0.979300
     1416.430600       0.980300
     1416.530900       0.981300
     1416.631300       0.982300
     1416.731600       0.983300
     1416.832000       0.984300
     1416.932300       0.985300
     1417.032700       0.986300
     1417.133100       0.987300
     1417.233600       0.988200
     1417.334000       0.989200
     1417.434400       0.990100
     1417.534900       0.991000
     1417.635400       0.991800
     1417.735900       0.992700
     1417.836400       0.993500
     1417.936900       0.994300
     1418.037400       0.995000
     1418.138000       0.995700
     1418.238500       0.996400
     1418.339100       0.997000
     1418.439700       0.997500
     1418.540300       0.998000
     1418.640900       0.998500
     1418.741600       0.998900
     1418.842200       0.999300
     1418.942900       0.999500
     1419.043600       0.999800
     1419.144300       0.999900
     1419.245000       1.000000
     1419.345700       1.000000
     1419.446400       0.999900
     1419.547200       0.999800
     1419.647900       0.999600
     1419.748700       0.999300
     1419.849500       0.998900
     1419.950300       0.998500
     1420.051100       0.998100
     1420.152000       0.997500
     1420.252800       0.996900
     1420.353700       0.996300
     1420.454500       0.995600
     1420.555400       0.994900
     1420.656300       0.994100
     1420.757300       0.993300
     1420.858200       0.992400
     1420.959100       0.991600
     1421.060100       0.990600
     1421.161100       0.989700
     1421.262100       0.988700
     1421.363100       0.987700
     1421.464100       0.986700
     1421.565100       0.985600
     1421.666200       0.984500
     1421.767300       0.983500
     1421.868300       0.982400
     1421.969400       0.981300
     1422.070500       0.980200
     1422.171700       0.979100
     1422.272800       0.978000
     1422.373900       0.976900
     1422.475100       0.975800
     1422.576300       0.974700
     1422.677500       0.973600
     1422.778700       0.972500
     1422.879900       0.971500
     1422.981100       0.970500
     1423.082400       0.969500
     1423.183700       0.968500
     1423.284900       0.967600
     1423.386200       0.966700
     1423.487500       0.965800
     1423.588900       0.965000
     1423.690200       0.964200
     1423.791600       0.963400
     1423.892900       0.962600
     1423.994300       0.961900
     1424.095700       0.961200
     1424.197100       0.960500
     1424.298500       0.959900
     1424.400000       0.959300
     1424.501400       0.958700
     1424.602900       0.958100
     1424.704400       0.957600
     1424.805900       0.957100
     1424.907400       0.956600
     1425.008900       0.956200
     1425.110400       0.955800
     1425.212000       0.955400
     1425.313600       0.955000
     1425.415200       0.954700
     1425.516700       0.954400
     1425.618400       0.954100
     1425.720000       0.953800
     1425.821600       0.953600
     1425.923300       0.953300
     1426.025000       0.953100
     1426.126600       0.953000
     1426.228300       0.952800
     1426.330100       0.952700
     1426.431800       0.952600
     1426.533500       0.952500
     1426.635300       0.952400
     1426.737100       0.952400
     1426.838800       0.952400
     1426.940600       0.952400
     1427.042500       0.952400
     1427.144300       0.952400
     1427.246100       0.952500
     1427.348000       0.952600
     1427.449900       0.952700
     1427.551700       0.952800
     1427.653700       0.953000
     1427.755600       0.953100
     1427.857500       0.953300
     1427.959400       0.953500
     1428.061400       0.953700
     1428.163400       0.954000
     1428.265400       0.954200
     1428.367400       0.954500
     1428.469400       0.954800
     1428.571400       0.955200
     1428.673500       0.955500
     1428.775500       0.955900
     1428.877600       0.956200
     1428.979700       0.956700
     1429.081800       0.957100
     1429.183900       0.957500
     1429.286100       0.958000
     1429.388200       0.958500
     1429.490400       0.959000
     1429.592600       0.959500
     1429.694800       0.960100
     1429.797000       0.960700
     1429.899200       0.961200
     1430.001400       0.961900
     1430.103700       0.962500
     1430.205900       0.963200
     1430.308200       0.963800
     1430.410500       0.964500
     1430.512800       0.965300
     1430.615200       0.966000
     1430.717500       0.966800
     1430.819900       0.967600
     1430.922200       0.968400
     1431.024600       0.969200
     1431.127000       0.970000
     1431.229400       0.970900
     1431.331900       0.971800
     1431.434300       0.972700
     1431.536800       0.973600
     1431.639200       0.974500
     1431.741700       0.975400
     1431.844200       0.976300
     1431.946700       0.977200
     1432.049300       0.978100
     1432.151800       0.979000
     1432.254400       0.979900
     1432.356900       0.980800
     1432.459500       0.981700
     1432.562100       0.982600
     1432.664800       0.983400
     1432.767400       0.984300
     1432.870000       0.985100
     1432.972700       0.985900
     1433.075400       0.986700
     1433.178100       0.987400
     1433.280800       0.988100
     1433.383500       0.988800
     1433.486200       0.989400
     1433.589000       0.990000
     1433.691800       0.990600
     1433.794500       0.991100
     1433.897300       0.991600
     1434.000100       0.992000
     1434.103000       0.992400
     1434.205800       0.992700
     1434.308700       0.993000
     1434.411500       0.993200
     1434.514400       0.993300
     1434.617300       0.993400
     1434.720200       0.993500
     1434.823200       0.993400
     1434.926100       0.993300
     1435.029100       0.993200
     1435.132000       0.993000
     1435.235000       0.992700
     1435.338000       0.992300
     1435.441000       0.991900
     1435.544100       0.991500
     1435.647100       0.991000
     1435.750200       0.990400
     1435.853300       0.989900
     1435.956300       0.989200
     1436.059500       0.988500
     1436.162600       0.987800
     1436.265700       0.987000
     1436.368900       0.986200
     1436.472000       0.985400
     1436.575200       0.984600
     1436.678400       0.983700
     1436.781600       0.982700
     1436.884800       0.981800
     1436.988100       0.980800
     1437.091300       0.979800
     1437.194600       0.978800
     1437.297900       0.977800
     1437.401200       0.976800
     1437.504500       0.975700
     1437.607800       0.974700
     1437.711200       0.973600
     1437.814500       0.972600
     1437.917900       0.971500
     1438.021300       0.970500
     1438.124700       0.969400
     1438.228100       0.968400
     1438.331500       0.967300
     1438.435000       0.966300
     1438.538400       0.965200
     1438.641900       0.964200
     1438.745400       0.963200
     1438.848900       0.962300
     1438.952400       0.961300
     1439.056000       0.960300
     1439.159500       0.959400
     1439.263100       0.958500
     1439.366700       0.957600
     1439.470300       0.956800
     1439.573900       0.955900
     1439.677500       0.955100
     1439.781200       0.954300
     1439.884800       0.953500
     1439.988500       0.952800
     1440.092200       0.952000
     1440.195900       0.951300
     1440.299600       0.950600
     1440.403300       0.950000
     1440.507100       0.949400
     1440.610800       0.948700
     1440.714600       0.948200
     1440.818400       0.947600
     1440.922200       0.947100
     1441.026000       0.946600
     1441.129800       0.946100
     1441.233700       0.945700
     1441.337600       0.945300
     1441.441400       0.944900
     1441.545300       0.944500
     1441.649200       0.944200
     1441.753200       0.943900
     1441.857100       0.943600
     1441.961100       0.943400
     1442.065000       0.943200
     1442.169000       0.943100
     1442.273000       0.942900
     1442.377000       0.942800
     1442.481100       0.942800
     1442.585100       0.942800
     1442.689200       0.942800
     1442.793200       0.942800
     1442.897300       0.942900
     1443.001400       0.943000
     1443.105600       0.943100
     1443.209700       0.943300
     1443.313800       0.943500
     1443.418000       0.943700
     1443.522200       0.943900
     1443.626400       0.944100
     1443.730600       0.944400
     1443.834800       0.944700
     1443.939100       0.945000
     1444.043300       0.945300
     1444.147600       0.945600
     1444.251900       0.946000
     1444.356200       0.946400
     1444.460500       0.946700
     1444.564800       0.947100
     1444.669200       0.947500
     1444.773500       0.947900
     1444.877900       0.948300
     1444.982300       0.948700
     1445.086700       0.949100
     1445.191100       0.949500
     1445.295600       0.949900
     1445.400000       0.950300
     1445.504500       0.950700
     1445.609000       0.951000
     1445.713500       0.951400
     1445.818000       0.951800
     1445.922500       0.952100
     1446.027000       0.952500
     1446.131600       0.952800
     1446.236200       0.953100
     1446.340800       0.953400
     1446.445400       0.953700
     1446.550000       0.953900
     1446.654600       0.954100
     1446.759300       0.954400
     1446.863900       0.954600
     1446.968600       0.954800
     1447.073300       0.954900
     1447.178000       0.955100
     1447.282700       0.955200
     1447.387500       0.955300
     1447.492200       0.955500
     1447.597000       0.955600
     1447.701800       0.955600
     1447.806600       0.955700
     1447.911400       0.955800
     1448.016200       0.955800
     1448.121100       0.955800
     1448.225900       0.955800
     1448.330800       0.955800
     1448.435700       0.955800
     1448.540600       0.955800
     1448.645500       0.955700
     1448.750500       0.955700
     1448.855400       0.955600
     1448.960400       0.955600
     1449.065400       0.955500
     1449.170300       0.955400
     1449.275400       0.955400
     1449.380400       0.955300
     1449.485400       0.955200
     1449.590500       0.955100
     1449.695600       0.955000
     1449.800700       0.954800
     1449.905800       0.954700
     1450.010900       0.954600
     1450.116000       0.954500
     1450.221200       0.954400
     1450.326300       0.954300
     1450.431500       0.954100
     1450.536700       0.954000
     1450.641900       0.953900
     1450.747100       0.953800
     1450.852400       0.953700
     1450.957600       0.953600
     1451.062900       0.953500
     1451.168200       0.953400
     1451.273500       0.953300
     1451.378800       0.953200
     1451.484100       0.953200
     1451.589500       0.953200
     1451.694900       0.953200
     1451.800200       0.953200
     1451.905600       0.953200
     1452.011000       0.953300
     1452.116500       0.953400
     1452.221900       0.953500
     1452.327400       0.953700
     1452.432800       0.953900
     1452.538300       0.954100
     1452.643800       0.954300
     1452.749300       0.954600
     1452.854900       0.955000
     1452.960400       0.955300
     1453.066000       0.955700
     1453.171500       0.956200
     1453.277100       0.956600
     1453.382700       0.957200
     1453.488400       0.957700
     1453.594000       0.958400
     1453.699700       0.959000
     1453.805300       0.959800
     1453.911000       0.960500
     1454.016700       0.961400
     1454.122400       0.962300
     1454.228200       0.963300
     1454.333900       0.964300
     1454.439700       0.965300
     1454.545500       0.966400
     1454.651200       0.967600
     1454.757100       0.968800
     1454.862900       0.970000
     1454.968700       0.971200
     1455.074600       0.972500
     1455.180400       0.973700
     1455.286300       0.975000
     1455.392200       0.976300
     1455.498100       0.977600
     1455.604100       0.978900
     1455.710000       0.980200
     1455.816000       0.981500
     1455.922000       0.982800
     1456.028000       0.984000
     1456.134000       0.985200
     1456.240000       0.986400
     1456.346000       0.987600
     1456.452100       0.988800
     1456.558200       0.989900
     1456.664200       0.990900
     1456.770300       0.991900
     1456.876500       0.992900
     1456.982600       0.993800
     1457.088700       0.994600
     1457.194900       0.995400
     1457.301100       0.996100
     1457.407300       0.996700
     1457.513500       0.997200
     1457.619700       0.997700
     1457.725900       0.998000
     1457.832200       0.998200
     1457.938500       0.998400
     1458.044800       0.998400
     1458.151100       0.998300
     1458.257400       0.998100
     1458.363700       0.997800
     1458.470100       0.997400
     1458.576400       0.997000
     1458.682800       0.996400
     1458.789200       0.995800
     1458.895600       0.995000
     1459.002000       0.994300
     1459.108500       0.993400
     1459.214900       0.992500
     1459.321400       0.991500
     1459.427900       0.990500
     1459.534400       0.989400
     1459.640900       0.988200
     1459.747500       0.987100
     1459.854000       0.985800
     1459.960600       0.984600
     1460.067200       0.983300
     1460.173800       0.982000
     1460.280400       0.980600
     1460.387000       0.979200
     1460.493600       0.977800
     1460.600300       0.976400
     1460.707000       0.975000
     1460.813700       0.973600
     1460.920400       0.972200
     1461.027100       0.970800
     1461.133800       0.969400
     1461.240600       0.968000
     1461.347400       0.966700
     1461.454100       0.965300
     1461.560900       0.964000
     1461.667800       0.962800
     1461.774600       0.961600
     1461.881400       0.960400
     1461.988300       0.959300
     1462.095200       0.958200
     1462.202100       0.957100
     1462.309000       0.956100
     1462.415900       0.955100
     1462.522900       0.954200
     1462.629800       0.953300
     1462.736800       0.952400
     1462.843800       0.951600
     1462.950800       0.950800
     1463.057800       0.950000
     1463.164800       0.949200
     1463.271900       0.948500
     1463.378900       0.947800
     1463.486000       0.947100
     1463.593100       0.946400
     1463.700200       0.945800
     1463.807400       0.945200
     1463.914500       0.944600
     1464.021700       0.944000
     1464.128800       0.943400
     1464.236000       0.942800
     1464.343200       0.942300
     1464.450500       0.941700
     1464.557700       0.941200
     1464.665000       0.940700
     1464.772200       0.940200
     1464.879500       0.939600
     1464.986800       0.939100
     1465.094100       0.938600
     1465.201500       0.938100
     1465.308800       0.937600
     1465.416200       0.937000
     1465.523600       0.936500
     1465.631000       0.935900
     1465.738400       0.935400
     1465.845800       0.934800
     1465.953200       0.934200
     1466.060700       0.933600
     1466.168200       0.933000
     1466.275700       0.932400
     1466.383200       0.931800
     1466.490700       0.931200
     1466.598200       0.930700
     1466.705800       0.930100
     1466.813300       0.929600
     1466.920900       0.929100
     1467.028500       0.928600
     1467.136200       0.928100
     1467.243800       0.927700
     1467.351400       0.927300
     1467.459100       0.926900
     1467.566800       0.926600
     1467.674500       0.926300
     1467.782200       0.926000
     1467.889900       0.925800
     1467.997700       0.925700
     1468.105400       0.925600
     1468.213200       0.925500
     1468.321000       0.925600
     1468.428800       0.925600
     1468.536600       0.925800
     1468.644400       0.926000
     1468.752300       0.926300
     1468.860200       0.926600
     1468.968000       0.927000
     1469.076000       0.927600
     1469.183900       0.928200
     1469.291800       0.928900
     1469.399800       0.929600
     1469.507700       0.930500
     1469.615700       0.931500
     1469.723700       0.932600
     1469.831700       0.933700
     1469.939700       0.934900
     1470.047800       0.936300
     1470.155800       0.937600
     1470.263900       0.939000
     1470.372000       0.940500
     1470.480100       0.942000
     1470.588200       0.943600
     1470.696400       0.945200
     1470.804500       0.946800
     1470.912700       0.948400
     1471.020900       0.950000
     1471.129100       0.951600
     1471.237300       0.953200
     1471.345500       0.954800
     1471.453800       0.956400
     1471.562100       0.958000
     1471.670300       0.959500
     1471.778600       0.961000
     1471.887000       0.962400
     1471.995300       0.963800
     1472.103600       0.965100
     1472.212000       0.966300
     1472.320400       0.967500
     1472.428800       0.968600
     1472.537200       0.969500
     1472.645600       0.970400
     1472.754100       0.971200
     1472.862500       0.971900
     1472.971000       0.972400
     1473.079500       0.972900
     1473.188000       0.973100
     1473.296500       0.973300
     1473.405000       0.973200
     1473.513600       0.973100
     1473.622200       0.972800
     1473.730700       0.972300
     1473.839400       0.971700
     1473.948000       0.970900
     1474.056600       0.970100
     1474.165300       0.969000
     1474.273900       0.967900
     1474.382600       0.966600
     1474.491300       0.965300
     1474.600000       0.963800
     1474.708700       0.962200
     1474.817500       0.960400
     1474.926300       0.958600
     1475.035000       0.956700
     1475.143800       0.954700
     1475.252600       0.952600
     1475.361500       0.950400
     1475.470300       0.948200
     1475.579200       0.945800
     1475.688000       0.943400
     1475.796900       0.940900
     1475.905800       0.938400
     1476.014800       0.935800
     1476.123700       0.933100
     1476.232700       0.930400
     1476.341600       0.927600
     1476.450600       0.924800
     1476.559600       0.922000
     1476.668600       0.919100
     1476.777700       0.916200
     1476.886700       0.913200
     1476.995800       0.910200
     1477.104900       0.907300
     1477.214000       0.904300
     1477.323100       0.901300
     1477.432200       0.898200
     1477.541400       0.895200
     1477.650500       0.892200
     1477.759700       0.889100
     1477.868900       0.886100
     1477.978100       0.883000
     1478.087400       0.879900
     1478.196600       0.876800
     1478.305900       0.873700
     1478.415100       0.870600
     1478.524400       0.867500
     1478.633700       0.864400
     1478.743100       0.861200
     1478.852400       0.858100
     1478.961800       0.854900
     1479.071100       0.851800
     1479.180500       0.848600
     1479.289900       0.845400
     1479.399400       0.842200
     1479.508800       0.839000
     1479.618300       0.835800
     1479.727700       0.832500
     1479.837200       0.829300
     1479.946700       0.826000
     1480.056200       0.822800
     1480.165800       0.819500
     1480.275300       0.816200
     1480.384900       0.812900
     1480.494500       0.809600
     1480.604100       0.806200
     1480.713700       0.802900
     1480.823300       0.799500
     1480.933000       0.796200
     1481.042700       0.792800
     1481.152300       0.789400
     1481.262000       0.786000
     1481.371800       0.782500
     1481.481500       0.779100
     1481.591200       0.775600
     1481.701000       0.772100
     1481.810800       0.768600
     1481.920600       0.765100
     1482.030400       0.761500
     1482.140200       0.757900
     1482.250100       0.754300
     1482.359900       0.750700
     1482.469800       0.747000
     1482.579700       0.743300
     1482.689600       0.739500
     1482.799500       0.735800
     1482.909500       0.731900
     1483.019400       0.728100
     1483.129400       0.724200
     1483.239400       0.720300
     1483.349400       0.716300
     1483.459400       0.712300
     1483.569500       0.708200
     1483.679500       0.704100
     1483.789600       0.700000
     1483.899700       0.695800
     1484.009800       0.691500
     1484.119900       0.687200
     1484.230100       0.682900
     1484.340200       0.678400
     1484.450400       0.674000
     1484.560600       0.669500
     1484.670800       0.664900
     1484.781000       0.660200
     1484.891200       0.655500
     1485.001500       0.650800
     1485.111800       0.646000
     1485.222000       0.641100
     1485.332300       0.636100
     1485.442700       0.631100
     1485.553000       0.626100
     1485.663300       0.621000
     1485.773700       0.615800
     1485.884100       0.610500
     1485.994500       0.605300
     1486.104900       0.599900
     1486.215400       0.594500
     1486.325800       0.589100
     1486.436300       0.583600
     1486.546800       0.578100
     1486.657300       0.572500
     1486.767800       0.566900
     1486.878300       0.561200
     1486.988800       0.555500
     1487.099400       0.549700
     1487.210000       0.543900
     1487.320600       0.538100
     1487.431200       0.532200
     1487.541800       0.526300
     1487.652500       0.520400
     1487.763100       0.514400
     1487.873800       0.508300
     1487.984500       0.502300
     1488.095200       0.496200
     1488.206000       0.490000
     1488.316700       0.483900
     1488.427500       0.477700
     1488.538300       0.471500
     1488.649100       0.465200
     1488.759900       0.458900
     1488.870700       0.452600
     1488.981500       0.446300
     1489.092400       0.439900
     1489.203300       0.433500
     1489.314200       0.427100
     1489.425100       0.420700
     1489.536000       0.414300
     1489.647000       0.407900
     1489.757900       0.401600
     1489.868900       0.395200
     1489.979900       0.388800
     1490.090900       0.382400
     1490.201900       0.376100
     1490.313000       0.369800
     1490.424000       0.363500
     1490.535100       0.357300
     1490.646200       0.351100
     1490.757300       0.344900
     1490.868400       0.338800
     1490.979600       0.332700
     1491.090700       0.326700
     1491.201900       0.320700
     1491.313100       0.314800
     1491.424300       0.308900
     1491.535500       0.303200
     1491.646800       0.297500
     1491.758000       0.291900
     1491.869300       0.286400
     1491.980600       0.280900
     1492.091900       0.275600
     1492.203200       0.270300
     1492.314600       0.265200
     1492.425900       0.260100
     1492.537300       0.255200
     1492.648700       0.250400
     1492.760100       0.245600
     1492.871500       0.241000
     1492.983000       0.236600
     1493.094400       0.232200
     1493.205900       0.227900
     1493.317400       0.223800
     1493.428900       0.219700
     1493.540400       0.215700
     1493.652000       0.211800
     1493.763500       0.208100
     1493.875100       0.204400
     1493.986700       0.200800
     1494.098300       0.197200
     1494.209900       0.193800
     1494.321600       0.190400
     1494.433200       0.187100
     1494.544900       0.183900
     1494.656600       0.180700
     1494.768300       0.177600
     1494.880000       0.174600
     1494.991800       0.171700
     1495.103500       0.168700
     1495.215300       0.165900
     1495.327100       0.163100
     1495.438900       0.160300
     1495.550700       0.157600
     1495.662600       0.154900
     1495.774400       0.152300
     1495.886300       0.149700
     1495.998200       0.147200
     1496.110100       0.144600
     1496.222000       0.142100
     1496.334000       0.139600
     1496.445900       0.137200
     1496.557900       0.134700
     1496.669900       0.132300
     1496.781900       0.129900
     1496.893900       0.127500
     1497.006000       0.125100
     1497.118000       0.122800
     1497.230100       0.120500
     1497.342200       0.118200
     1497.454300       0.115900
     1497.566500       0.113600
     1497.678600       0.111400
     1497.790800       0.109200
     1497.902900       0.107000
     1498.015100       0.104900
     1498.127300       0.102800
     1498.239600       0.100700
     1498.351800       0.098600
     1498.464100       0.096600
     1498.576400       0.094600
     1498.688600       0.092700
     1498.801000       0.090700
     1498.913300       0.088900
     1499.025600       0.087000
     1499.138000       0.085200
     1499.250400       0.083400
     1499.362800       0.081700
     1499.475200       0.080000
     1499.587600       0.078400
     1499.700100       0.076700
     1499.812500       0.075200
     1499.925000       0.073700
     1500.037500       0.072200
     1500.150000       0.070800
     1500.262500       0.069400
     1500.375100       0.068000
     1500.487700       0.066800
     1500.600200       0.065500
     1500.712800       0.064300
     1500.825500       0.063200
     1500.938100       0.062100
     1501.050700       0.061000
     1501.163400       0.060000
     1501.276100       0.059000
     1501.388800       0.058100
     1501.501500       0.057200
     1501.614200       0.056300
     1501.727000       0.055400
     1501.839800       0.054600
     1501.952500       0.053800
     1502.065300       0.053000
     1502.178200       0.052300
     1502.291000       0.051600
     1502.403800       0.050900
     1502.516700       0.050200
     1502.629600       0.049600
     1502.742500       0.048900
     1502.855400       0.048300
     1502.968400       0.047700
     1503.081300       0.047100
     1503.194300       0.046500
     1503.307300       0.045900
     1503.420300       0.045400
     1503.533300       0.044800
     1503.646300       0.044300
     1503.759400       0.043700
     1503.872500       0.043100
     1503.985600       0.042600
     1504.098700       0.042000
     1504.211800       0.041500
     1504.324900       0.040900
     1504.438100       0.040300
     1504.551300       0.039800
     1504.664500       0.039200
     1504.777700       0.038600
     1504.890900       0.038000
     1505.004100       0.037400
     1505.117400       0.036800
     1505.230700       0.036200
     1505.344000       0.035600
     1505.457300       0.035000
     1505.570600       0.034400
     1505.684000       0.033800
     1505.797300       0.033200
     1505.910700       0.032600
     1506.024100       0.032000
     1506.137500       0.031500
     1506.250900       0.030900
     1506.364400       0.030300
     1506.477900       0.029700
     1506.591300       0.029100
     1506.704800       0.028500
     1506.818400       0.027900
     1506.931900       0.027400
     1507.045400       0.026800
     1507.159000       0.026200
     1507.272600       0.025700
     1507.386200       0.025100
     1507.499800       0.024600
     1507.613400       0.024100
     1507.727100       0.023500
     1507.840800       0.023000
     1507.954500       0.022500
     1508.068200       0.022000
     1508.181900       0.021500
     1508.295600       0.021000
     1508.409400       0.020600
     1508.523200       0.020100
     1508.636900       0.019700
     1508.750800       0.019200
     1508.864600       0.018800
     1508.978400       0.018400
     1509.092300       0.018000
     1509.206200       0.017600
     1509.320100       0.017200
     1509.434000       0.016800
     1509.547900       0.016400
     1509.661800       0.016000
     1509.775800       0.015700
     1509.889800       0.015300
     1510.003800       0.015000
     1510.117800       0.014700
     1510.231800       0.014400
     1510.345900       0.014100
     1510.459900       0.013800
     1510.574000       0.013500
     1510.688100       0.013200
     1510.802200       0.012900
     1510.916400       0.012700
     1511.030500       0.012400
     1511.144700       0.012200
     1511.258900       0.011900
     1511.373100       0.011700
     1511.487300       0.011500
     1511.601500       0.011300
     1511.715800       0.011100
     1511.830100       0.010900
     1511.944400       0.010700
     1512.058700       0.010600
     1512.173000       0.010400
     1512.287300       0.010300
     1512.401700       0.010100
     1512.516100       0.010000
     1512.630500       0.009900
     1512.744900       0.009700
     1512.859300       0.009600
     1512.973700       0.009500
     1513.088200       0.009400
     1513.202700       0.009300
     1513.317200       0.009200
     1513.431700       0.009200
     1513.546200       0.009100
     1513.660800       0.009000
     1513.775400       0.008900
     1513.889900       0.008900
     1514.004500       0.008800
     1514.119200       0.008700
     1514.233800       0.008700
     1514.348500       0.008600
     1514.463100       0.008500
     1514.577800       0.008500
     1514.692500       0.008400
     1514.807200       0.008400
     1514.922000       0.008300
     1515.036700       0.008200
     1515.151500       0.008200
     1515.266300       0.008100
     1515.381100       0.008100
     1515.495900       0.008000
     1515.610800       0.007900
     1515.725700       0.007900
     1515.840500       0.007800
     1515.955400       0.007700
     1516.070300       0.007600
     1516.185300       0.007600
     1516.300200       0.007500
     1516.415200       0.007400
     1516.530200       0.007300
     1516.645200       0.007200
     1516.760200       0.007100
     1516.875200       0.007000
     1516.990300       0.006900
     1517.105400       0.006800
     1517.220500       0.006700
     1517.335600       0.006600
     1517.450700       0.006500
     1517.565800       0.006400
     1517.681000       0.006300
     1517.796200       0.006200
     1517.911400       0.006100
     1518.026600       0.006000
     1518.141800       0.005900
     1518.257000       0.005800
     1518.372300       0.005700
     1518.487600       0.005600
     1518.602900       0.005500
     1518.718200       0.005500
     1518.833500       0.005400
     1518.948900       0.005300
     1519.064300       0.005200
     1519.179600       0.005100
     1519.295000       0.005000
     1519.410500       0.004900
     1519.525900       0.004900
     1519.641400       0.004800
     1519.756800       0.004700
     1519.872300       0.004700
     1519.987800       0.004600
     1520.103400       0.004500
     1520.218900       0.004500
     1520.334500       0.004400
     1520.450100       0.004400
     1520.565700       0.004300
     1520.681300       0.004300
     1520.796900       0.004300
     1520.912500       0.004200
     1521.028200       0.004200
     1521.143900       0.004100
     1521.259600       0.004100
     1521.375300       0.004100
     1521.491100       0.004000
     1521.606800       0.004000
     1521.722600       0.004000
     1521.838400       0.003900
     1521.954200       0.003900
     1522.070000       0.003900
     1522.185900       0.003800
     1522.301700       0.003800
     1522.417600       0.003800
     1522.533500       0.003700
     1522.649400       0.003700
     1522.765300       0.003700
     1522.881300       0.003600
     1522.997300       0.003600
     1523.113200       0.003600
     1523.229200       0.003500
     1523.345300       0.003500
     1523.461300       0.003400
     1523.577400       0.003400
     1523.693400       0.003400
     1523.809500       0.003300
     1523.925600       0.003300
     1524.041800       0.003200
     1524.157900       0.003200
     1524.274100       0.003100
     1524.390200       0.003100
     1524.506400       0.003000
     1524.622700       0.003000
     1524.738900       0.002900
     1524.855100       0.002800
     1524.971400       0.002800
     1525.087700       0.002700
     1525.204000       0.002700
     1525.320300       0.002600
     1525.436700       0.002600
     1525.553000       0.002500
     1525.669400       0.002500
     1525.785800       0.002400
     1525.902200       0.002400
     1526.018600       0.002300
     1526.135100       0.002300
     1526.251500       0.002200
     1526.368000       0.002200
     1526.484500       0.002100
     1526.601000       0.002100
     1526.717600       0.002000
     1526.834100       0.002000
     1526.950700       0.002000
     1527.067300       0.001900
     1527.183900       0.001900
     1527.300500       0.001900
     1527.417100       0.001800
     1527.533800       0.001800
     1527.650500       0.001800
     1527.767200       0.001800
     1527.883900       0.001700
     1528.000600       0.001700
     1528.117400       0.001700
     1528.234100       0.001700
     1528.350900       0.001700
     1528.467700       0.001700
     1528.584500       0.001700
     1528.701400       0.001700
     1528.818200       0.001700
     1528.935100       0.001700
     1529.052000       0.001700
     1529.168900       0.001700
     1529.285800       0.001700
     1529.402800       0.001700
     1529.519700       0.001700
     1529.636700       0.001700
     1529.753700       0.001700
     1529.870700       0.001700
     1529.987800       0.001700
     1530.104800       0.001700
     1530.221900       0.001700
     1530.339000       0.001700
     1530.456100       0.001700
     1530.573200       0.001700
     1530.690300       0.001700
     1530.807500       0.001600
     1530.924700       0.001600
     1531.041900       0.001600
     1531.159100       0.001600
     1531.276300       0.001600
     1531.393600       0.001600
     1531.510800       0.001600
     1531.628100       0.001600
     1531.745400       0.001500
     1531.862700       0.001500
     1531.980100       0.001500
     1532.097400       0.001500
     1532.214800       0.001400
     1532.332200       0.001400
     1532.449600       0.001400
     1532.567000       0.001400
     1532.684500       0.001300
     1532.802000       0.001300
     1532.919400       0.001300
     1533.036900       0.001200
     1533.154500       0.001200
     1533.272000       0.001200
     1533.389600       0.001200
     1533.507100       0.001100
     1533.624700       0.001100
     1533.742300       0.001100
     1533.860000       0.001000
     1533.977600       0.001000
     1534.095300       0.001000
     1534.212900       0.001000
     1534.330600       0.001000
     1534.448400       0.000900
     1534.566100       0.000900
     1534.683900       0.000900
     1534.801600       0.000900
     1534.919400       0.000900
     1535.037200       0.000900
     1535.155100       0.000900
     1535.272900       0.000800
     1535.390800       0.000800
     1535.508600       0.000800
     1535.626500       0.000800
     1535.744500       0.000800
     1535.862400       0.000800
     1535.980300       0.000900
     1536.098300       0.000900
     1536.216300       0.000900
     1536.334300       0.000900
     1536.452300       0.000900
     1536.570400       0.000900
     1536.688400       0.000900
     1536.806500       0.000900
     1536.924600       0.000900
     1537.042700       0.000900
     1537.160900       0.001000
     1537.279000       0.001000
     1537.397200       0.001000
     1537.515400       0.001000
     1537.633600       0.001000
     1537.751800       0.001000
     1537.870000       0.001000
     1537.988300       0.001000
     1538.106600       0.001000
     1538.224900       0.001000
     1538.343200       0.001000
     1538.461500       0.001000
     1538.579900       0.001000
     1538.698300       0.001000
     1538.816600       0.001000
     1538.935100       0.001000
     1539.053500       0.001000
     1539.171900       0.001000
     1539.290400       0.001000
     1539.408900       0.001000
     1539.527400       0.001000
     1539.645900       0.001000
     1539.764400       0.000900
     1539.883000       0.000900
     1540.001500       0.000900
     1540.120100       0.000900
     1540.238700       0.000900
     1540.357400       0.000800
     1540.476000       0.000800
     1540.594700       0.000800
     1540.713400       0.000800
     1540.832000       0.000800
     1540.950800       0.000700
     1541.069500       0.000700
     1541.188300       0.000700
     1541.307000       0.000700
     1541.425800       0.000600
     1541.544600       0.000600
     1541.663500       0.000600
     1541.782300       0.000600
     1541.901200       0.000500
     1542.020000       0.000500
     1542.138900       0.000500
     1542.257900       0.000500
     1542.376800       0.000500
     1542.495800       0.000500
     1542.614700       0.000500
     1542.733700       0.000400
     1542.852700       0.000400
     1542.971800       0.000400
     1543.090800       0.000400
     1543.209900       0.000400
     1543.329000       0.000400
     1543.448100       0.000400
     1543.567200       0.000400
     1543.686300       0.000400
     1543.805500       0.000400
     1543.924700       0.000400
     1544.043900       0.000500
     1544.163100       0.000500
     1544.282300       0.000500
     1544.401500       0.000500
     1544.520800       0.000500
     1544.640100       0.000500
     1544.759400       0.000500
     1544.878700       0.000500
     1544.998100       0.000500
     1545.117400       0.000600
     1545.236800       0.000600
     1545.356200       0.000600
     1545.475600       0.000600
     1545.595100       0.000600
     1545.714500       0.000600
     1545.834000       0.000600
     1545.953500       0.000600
     1546.073000       0.000600
     1546.192500       0.000600
     1546.312000       0.000600
     1546.431600       0.000600
     1546.551200       0.000600
     1546.670800       0.000600
     1546.790400       0.000600
     1546.910000       0.000600
     1547.029700       0.000600
     1547.149400       0.000600
     1547.269100       0.000600
     1547.388800       0.000600
     1547.508500       0.000600
     1547.628300       0.000600
     1547.748000       0.000600
     1547.867800       0.000600
     1547.987600       0.000600
     1548.107400       0.000500
     1548.227300       0.000500
     1548.347100       0.000500
     1548.467000       0.000500
     1548.586900       0.000500
     1548.706800       0.000500
     1548.826800       0.000500
     1548.946700       0.000400
     1549.066700       0.000400
     1549.186700       0.000400
     1549.306700       0.000400
     1549.426700       0.000400
     1549.546800       0.000400
     1549.666800       0.000400
     1549.786900       0.000400
     1549.907000       0.000400
     1550.027100       0.000300
     1550.147300       0.000300
     1550.267400       0.000300
     1550.387600       0.000300
     1550.507800       0.000300
     1550.628000       0.000300
     1550.748200       0.000300
     1550.868500       0.000300
     1550.988800       0.000300
     1551.109000       0.000300
     1551.229300       0.000300
     1551.349700       0.000300
     1551.470000       0.000300
     1551.590400       0.000400
     1551.710800       0.000400
     1551.831200       0.000400
     1551.951600       0.000400
     1552.072000       0.000400
     1552.192500       0.000400
     1552.312900       0.000400
     1552.433400       0.000400
     1552.554000       0.000400
     1552.674500       0.000400
     1552.795000       0.000400
     1552.915600       0.000500
     1553.036200       0.000500
     1553.156800       0.000500
     1553.277400       0.000500
     1553.398100       0.000500
     1553.518700       0.000500
     1553.639400       0.000500
     1553.760100       0.000500
     1553.880800       0.000500
     1554.001600       0.000500
     1554.122300       0.000500
     1554.243100       0.000500
     1554.363900       0.000500
     1554.484700       0.000500
     1554.605500       0.000500
     1554.726400       0.000500
     1554.847200       0.000500
     1554.968100       0.000500
     1555.089000       0.000500
     1555.210000       0.000500
     1555.330900       0.000500
     1555.451900       0.000400
     1555.572800       0.000400
     1555.693800       0.000400
     1555.814900       0.000400
     1555.935900       0.000400
     1556.057000       0.000400
     1556.178000       0.000400
     1556.299100       0.000400
     1556.420200       0.000300
     1556.541400       0.000300
     1556.662500       0.000300
     1556.783700       0.000300
     1556.904900       0.000300
     1557.026100       0.000300
     1557.147300       0.000300
     1557.268600       0.000200
     1557.389800       0.000200
     1557.511100       0.000200
     1557.632400       0.000200
     1557.753700       0.000200
     1557.875100       0.000200
     1557.996400       0.000200
     1558.117800       0.000200
     1558.239200       0.000200
     1558.360600       0.000200
     1558.482000       0.000200
     1558.603500       0.000200
     1558.725000       0.000200
     1558.846500       0.000200
     1558.968000       0.000200
     1559.089500       0.000200
     1559.211000       0.000200
     1559.332600       0.000200
     1559.454200       0.000200
     1559.575800       0.000200
     1559.697400       0.000200
     1559.819100       0.000200
     1559.940700       0.000200
     1560.062400       0.000200
     1560.184100       0.000200
     1560.305800       0.000300
     1560.427600       0.000300
     1560.549300       0.000300
     1560.671100       0.000300
     1560.792900       0.000300
     1560.914700       0.000300
     1561.036500       0.000300
     1561.158400       0.000300
     1561.280200       0.000300
     1561.402100       0.000300
     1561.524000       0.000300
     1561.646000       0.000300
     1561.767900       0.000300
     1561.889900       0.000300
     1562.011900       0.000300
     1562.133900       0.000300
     1562.255900       0.000300
     1562.377900       0.000300
     1562.500000       0.000300
     1562.622100       0.000300
     1562.744200       0.000300
     1562.866300       0.000300
     1562.988400       0.000300
     1563.110600       0.000300
     1563.232800       0.000300
     1563.355000       0.000300
     1563.477200       0.000300
     1563.599400       0.000300
     1563.721700       0.000300
     1563.843900       0.000200
     1563.966200       0.000200
     1564.088500       0.000200
     1564.210900       0.000200
     1564.333200       0.000200
     1564.455600       0.000200
     1564.578000       0.000200
     1564.700400       0.000200
     1564.822800       0.000200
     1564.945200       0.000200
     1565.067700       0.000200
     1565.190200       0.000100
     1565.312700       0.000100
     1565.435200       0.000100
     1565.557700       0.000100
     1565.680300       0.000100
     1565.802900       0.000100
     1565.925500       0.000100
     1566.048100       0.000100
     1566.170700       0.000100
     1566.293400       0.000100
     1566.416000       0.000100
     1566.538700       0.000100
     1566.661400       0.000100
     1566.784200       0.000100
     1566.906900       0.000100
     1567.029700       0.000100
     1567.152500       0.000100
     1567.275300       0.000100
     1567.398100       0.000100
     1567.521000       0.000100
     1567.643800       0.000100
     1567.766700       0.000200
     1567.889600       0.000200
     1568.012500       0.000200
     1568.135500       0.000200
     1568.258400       0.000200
     1568.381400       0.000200
     1568.504400       0.000200
     1568.627500       0.000200
     1568.750500       0.000200
     1568.873500       0.000200
     1568.996600       0.000200
     1569.119700       0.000200
     1569.242800       0.000200
     1569.366000       0.000200
     1569.489100       0.000200
     1569.612300       0.000200
     1569.735500       0.000200
     1569.858700       0.000200
     1569.981900       0.000200
     1570.105200       0.000200
     1570.228500       0.000200
     1570.351800       0.000200
     1570.475100       0.000200
     1570.598400       0.000200
     1570.721700       0.000200
     1570.845100       0.000200
     1570.968500       0.000200
     1571.091900       0.000200
     1571.215300       0.000200
     1571.338800       0.000200
     1571.462200       0.000200
     1571.585700       0.000200
     1571.709200       0.000200
     1571.832800       0.000200
     1571.956300       0.000200
     1572.079900       0.000100
     1572.203400       0.000100
     1572.327000       0.000100
     1572.450700       0.000100
     1572.574300       0.000100
     1572.698000       0.000100
     1572.821600       0.000100
     1572.945300       0.000100
     1573.069100       0.000100
     1573.192800       0.000100
     1573.316600       0.000100
     1573.440300       0.000100
     1573.564100       0.000100
     1573.687900       0.000100
     1573.811800       0.000100
     1573.935600       0.000100
     1574.059500       0.000100
     1574.183400       0.000100
     1574.307300       0.000100
     1574.431200       0.000100
     1574.555200       0.000100
     1574.679200       0.000100
     1574.803100       0.000100
     1574.927200       0.000100
     1575.051200       0.000100
