4,   4, MVIRI VIS channel from srf_MET4_1989348_1989349_1801-Release_S10EL_10.dat
Number of data points:
752
Wavenumber (cm-1)   Filter response
     8745.080900       0.000000
     8752.735200       0.000000
     8760.403000       0.000001
     8768.084200       0.000058
     8775.778900       0.000197
     8783.487000       0.000414
     8791.208800       0.000709
     8798.944100       0.001078
     8806.693100       0.001519
     8814.455700       0.002030
     8822.232000       0.002610
     8830.022100       0.003255
     8837.825900       0.003964
     8845.643500       0.004736
     8853.475000       0.005567
     8861.320300       0.006458
     8869.179600       0.007404
     8877.052800       0.008406
     8884.940000       0.009461
     8892.841300       0.010568
     8900.756600       0.011725
     8908.686000       0.012930
     8916.629500       0.014183
     8924.587200       0.015482
     8932.559200       0.016824
     8940.545400       0.018211
     8948.545900       0.019639
     8956.560700       0.021108
     8964.589900       0.022617
     8972.633500       0.024164
     8980.691500       0.025748
     8988.764000       0.027369
     8996.851100       0.029025
     9004.952700       0.030715
     9013.068900       0.032438
     9021.199800       0.034194
     9029.345400       0.035982
     9037.505600       0.037800
     9045.680700       0.039649
     9053.870500       0.041526
     9062.075200       0.043432
     9070.294800       0.045366
     9078.529300       0.047327
     9086.778700       0.049315
     9095.043200       0.051328
     9103.322700       0.053366
     9111.617300       0.055430
     9119.927000       0.057517
     9128.251900       0.059628
     9136.592100       0.061762
     9144.947400       0.063919
     9153.318100       0.066098
     9161.704100       0.068299
     9170.105500       0.070521
     9178.522300       0.072764
     9186.954500       0.075028
     9195.402300       0.077313
     9203.865600       0.079617
     9212.344500       0.081942
     9220.839100       0.084285
     9229.349300       0.086648
     9237.875300       0.089030
     9246.417000       0.091430
     9254.974500       0.093849
     9263.547900       0.096287
     9272.137200       0.098742
     9280.742500       0.101216
     9289.363700       0.103707
     9298.000900       0.106215
     9306.654300       0.108742
     9315.323700       0.111285
     9324.009300       0.113846
     9332.711200       0.116424
     9341.429200       0.119019
     9350.163600       0.121631
     9358.914400       0.124260
     9367.681500       0.126906
     9376.465100       0.129568
     9385.265100       0.132247
     9394.081700       0.134943
     9402.914900       0.137655
     9411.764700       0.140384
     9420.631200       0.143130
     9429.514400       0.145892
     9438.414300       0.148671
     9447.331100       0.151466
     9456.264800       0.154277
     9465.215300       0.157106
     9474.182900       0.159950
     9483.167400       0.162812
     9492.169000       0.165689
     9501.187600       0.168584
     9510.223500       0.171495
     9519.276500       0.174422
     9528.346800       0.177366
     9537.434400       0.180327
     9546.539400       0.183304
     9555.661700       0.186299
     9564.801500       0.189309
     9573.958800       0.192337
     9583.133700       0.195381
     9592.326100       0.198442
     9601.536200       0.201520
     9610.764100       0.204615
     9620.009600       0.207726
     9629.273000       0.210855
     9638.554200       0.214000
     9647.853400       0.217162
     9657.170400       0.220341
     9666.505600       0.223538
     9675.858700       0.226751
     9685.230000       0.229981
     9694.619500       0.233228
     9704.027200       0.236492
     9713.453100       0.239773
     9722.897400       0.243072
     9732.360100       0.246387
     9741.841200       0.249719
     9751.340800       0.253068
     9760.859000       0.256434
     9770.395700       0.259818
     9779.951100       0.263218
     9789.525200       0.266635
     9799.118100       0.270070
     9808.729800       0.273520
     9818.360300       0.276988
     9828.009800       0.280473
     9837.678300       0.283975
     9847.365800       0.287493
     9857.072400       0.291028
     9866.798200       0.294580
     9876.543200       0.298148
     9886.307500       0.301733
     9896.091000       0.305334
     9905.894000       0.308951
     9915.716400       0.312585
     9925.558300       0.316235
     9935.419800       0.319902
     9945.300800       0.323584
     9955.201600       0.327282
     9965.122100       0.330996
     9975.062300       0.334726
     9985.022500       0.338472
     9995.002500       0.342233
    10005.002500       0.346009
    10015.022500       0.349800
    10025.062700       0.353607
    10035.122900       0.357428
    10045.203400       0.361265
    10055.304200       0.365116
    10065.425300       0.368981
    10075.566800       0.372861
    10085.728700       0.376755
    10095.911200       0.380663
    10106.114200       0.384585
    10116.337900       0.388520
    10126.582300       0.392469
    10136.847400       0.396431
    10147.133400       0.400406
    10157.440300       0.404394
    10167.768200       0.408394
    10178.117000       0.412407
    10188.487000       0.416432
    10198.878100       0.420469
    10209.290500       0.424517
    10219.724100       0.428577
    10230.179000       0.432648
    10240.655400       0.436731
    10251.153300       0.440824
    10261.672700       0.444927
    10272.213700       0.449040
    10282.776300       0.453164
    10293.360800       0.457297
    10303.967000       0.461439
    10314.595200       0.465591
    10325.245200       0.469751
    10335.917300       0.473920
    10346.611500       0.478096
    10357.327800       0.482281
    10368.066400       0.486473
    10378.827200       0.490673
    10389.610400       0.494879
    10400.416000       0.499092
    10411.244100       0.503312
    10422.094800       0.507537
    10432.968200       0.511768
    10443.864200       0.516004
    10454.783100       0.520245
    10465.724800       0.524491
    10476.689400       0.528741
    10487.677000       0.532994
    10498.687700       0.537252
    10509.721500       0.541512
    10520.778500       0.545775
    10531.858900       0.550041
    10542.962600       0.554309
    10554.089700       0.558578
    10565.240400       0.562849
    10576.414600       0.567120
    10587.612500       0.571393
    10598.834100       0.575665
    10610.079600       0.579937
    10621.348900       0.584208
    10632.642200       0.588479
    10643.959600       0.592748
    10655.301000       0.597015
    10666.666700       0.601280
    10678.056600       0.605542
    10689.470900       0.609801
    10700.909600       0.614057
    10712.372800       0.618309
    10723.860600       0.622557
    10735.373100       0.626800
    10746.910300       0.631038
    10758.472300       0.635270
    10770.059200       0.639496
    10781.671200       0.643716
    10793.308100       0.647929
    10804.970300       0.652136
    10816.657700       0.656334
    10828.370300       0.660524
    10840.108400       0.664706
    10851.871900       0.668879
    10863.661100       0.673043
    10875.475800       0.677197
    10887.316300       0.681341
    10899.182600       0.685474
    10911.074700       0.689596
    10922.992900       0.693707
    10934.937100       0.697806
    10946.907500       0.701892
    10958.904100       0.705966
    10970.927000       0.710027
    10982.976400       0.714074
    10995.052200       0.718107
    11007.154700       0.722125
    11019.283700       0.726129
    11031.439600       0.730117
    11043.622300       0.734090
    11055.832000       0.738046
    11068.068600       0.741986
    11080.332400       0.745909
    11092.623400       0.749815
    11104.941700       0.753703
    11117.287400       0.757572
    11129.660500       0.761423
    11142.061300       0.765255
    11154.489700       0.769068
    11166.945800       0.772860
    11179.429800       0.776632
    11191.941800       0.780384
    11204.481800       0.784115
    11217.049900       0.787824
    11229.646300       0.791511
    11242.270900       0.795176
    11254.924000       0.798818
    11267.605600       0.802437
    11280.315800       0.806033
    11293.054800       0.809605
    11305.822500       0.813153
    11318.619100       0.816676
    11331.444800       0.820174
    11344.299500       0.823647
    11357.183400       0.827094
    11370.096600       0.830516
    11383.039300       0.833910
    11396.011400       0.837278
    11409.013100       0.840619
    11422.044500       0.843933
    11435.105800       0.847218
    11448.196900       0.850476
    11461.318100       0.853704
    11474.469300       0.856905
    11487.650800       0.860075
    11500.862600       0.863217
    11514.104800       0.866328
    11527.377500       0.869410
    11540.680900       0.872461
    11554.015000       0.875481
    11567.380000       0.878470
    11580.775900       0.881428
    11594.202900       0.884354
    11607.661100       0.887249
    11621.150500       0.890111
    11634.671300       0.892940
    11648.223600       0.895737
    11661.807600       0.898501
    11675.423200       0.901231
    11689.070700       0.903928
    11702.750100       0.906591
    11716.461600       0.909219
    11730.205300       0.911814
    11743.981200       0.914374
    11757.789500       0.916899
    11771.630400       0.919389
    11785.503800       0.921844
    11799.410000       0.924263
    11813.349100       0.926647
    11827.321100       0.928994
    11841.326200       0.931306
    11855.364600       0.933581
    11869.436200       0.935820
    11883.541300       0.938023
    11897.680000       0.940188
    11911.852300       0.942316
    11926.058400       0.944407
    11940.298500       0.946461
    11954.572600       0.948478
    11968.880900       0.950456
    11983.223500       0.952397
    11997.600500       0.954300
    12012.012000       0.956165
    12026.458200       0.957992
    12040.939200       0.959781
    12055.455100       0.961531
    12070.006000       0.963242
    12084.592100       0.964915
    12099.213600       0.966550
    12113.870400       0.968145
    12128.562800       0.969702
    12143.290800       0.971220
    12158.054700       0.972699
    12172.854500       0.974138
    12187.690400       0.975539
    12202.562500       0.976900
    12217.471000       0.978223
    12232.415900       0.979506
    12247.397400       0.980750
    12262.415700       0.981954
    12277.470800       0.983119
    12292.563000       0.984245
    12307.692300       0.985332
    12322.858900       0.986379
    12338.062900       0.987387
    12353.304500       0.988356
    12368.583800       0.989286
    12383.900900       0.990176
    12399.256000       0.991027
    12414.649300       0.991839
    12430.080800       0.992612
    12445.550700       0.993346
    12461.059200       0.994041
    12476.606400       0.994697
    12492.192400       0.995315
    12507.817400       0.995893
    12523.481500       0.996433
    12539.185000       0.996935
    12554.927800       0.997397
    12570.710200       0.997822
    12586.532400       0.998208
    12602.394500       0.998557
    12618.296500       0.998867
    12634.238800       0.999140
    12650.221400       0.999374
    12666.244500       0.999572
    12682.308200       0.999731
    12698.412700       0.999854
    12714.558200       0.999940
    12730.744700       0.999988
    12746.972600       1.000000
    12763.241900       0.999975
    12779.552700       0.999914
    12795.905300       0.999817
    12812.299800       0.999684
    12828.736400       0.999515
    12845.215200       0.999310
    12861.736300       0.999071
    12878.300100       0.998796
    12894.906500       0.998486
    12911.555800       0.998142
    12928.248200       0.997763
    12944.983800       0.997350
    12961.762800       0.996903
    12978.585300       0.996422
    12995.451600       0.995908
    13012.361700       0.995361
    13029.316000       0.994781
    13046.314400       0.994169
    13063.357300       0.993524
    13080.444700       0.992847
    13097.576900       0.992139
    13114.754100       0.991399
    13131.976400       0.990628
    13149.243900       0.989826
    13166.556900       0.988994
    13183.915600       0.988132
    13201.320100       0.987239
    13218.770700       0.986318
    13236.267400       0.985367
    13253.810500       0.984387
    13271.400100       0.983379
    13289.036500       0.982342
    13306.719900       0.981278
    13324.450400       0.980186
    13342.228200       0.979067
    13360.053400       0.977922
    13377.926400       0.976750
    13395.847300       0.975552
    13413.816200       0.974329
    13431.833400       0.973080
    13449.899100       0.971806
    13468.013500       0.970508
    13486.176700       0.969186
    13504.388900       0.967840
    13522.650400       0.966470
    13540.961400       0.965078
    13559.322000       0.963664
    13577.732500       0.962227
    13596.193100       0.960768
    13614.703900       0.959288
    13633.265200       0.957788
    13651.877100       0.956266
    13670.540000       0.954725
    13689.253900       0.953164
    13708.019200       0.951584
    13726.836000       0.949985
    13745.704500       0.948368
    13764.624900       0.946733
    13783.597500       0.945080
    13802.622500       0.943410
    13821.700100       0.941724
    13840.830400       0.940021
    13860.013900       0.938303
    13879.250500       0.936569
    13898.540700       0.934821
    13917.884500       0.933058
    13937.282200       0.931281
    13956.734100       0.929490
    13976.240400       0.927687
    13995.801300       0.925870
    14015.417000       0.924042
    14035.087700       0.922202
    14054.813800       0.920350
    14074.595400       0.918488
    14094.432700       0.916615
    14114.326000       0.914732
    14134.275600       0.912840
    14154.281700       0.910939
    14174.344400       0.909029
    14194.464200       0.907111
    14214.641100       0.905185
    14234.875400       0.903252
    14255.167500       0.901312
    14275.517500       0.899366
    14295.925700       0.897414
    14316.392300       0.895457
    14336.917600       0.893494
    14357.501800       0.891527
    14378.145200       0.889556
    14398.848100       0.887581
    14419.610700       0.885603
    14440.433200       0.883622
    14461.316000       0.881639
    14482.259200       0.879654
    14503.263200       0.877667
    14524.328200       0.875680
    14545.454500       0.873692
    14566.642400       0.871703
    14587.892000       0.869715
    14609.203800       0.867728
    14630.577900       0.865742
    14652.014700       0.863757
    14673.514300       0.861774
    14695.077100       0.859794
    14716.703500       0.857816
    14738.393500       0.855842
    14760.147600       0.853871
    14781.966000       0.851904
    14803.849000       0.849942
    14825.796900       0.847984
    14847.809900       0.846032
    14869.888500       0.844085
    14892.032800       0.842144
    14914.243100       0.840209
    14936.519800       0.838282
    14958.863100       0.836361
    14981.273400       0.834448
    15003.750900       0.832543
    15026.296000       0.830646
    15048.909000       0.828757
    15071.590100       0.826878
    15094.339600       0.825008
    15117.158000       0.823147
    15140.045400       0.821296
    15163.002300       0.819456
    15186.028900       0.817626
    15209.125500       0.815807
    15232.292500       0.814000
    15255.530100       0.812204
    15278.838800       0.810420
    15302.218800       0.808648
    15325.670500       0.806889
    15349.194200       0.805142
    15372.790200       0.803409
    15396.458800       0.801689
    15420.200500       0.799983
    15444.015400       0.798290
    15467.904100       0.796612
    15491.866800       0.794948
    15515.903800       0.793298
    15540.015500       0.791664
    15564.202300       0.790045
    15588.464500       0.788441
    15612.802500       0.786853
    15637.216600       0.785280
    15661.707100       0.783724
    15686.274500       0.782183
    15710.919100       0.780660
    15735.641200       0.779152
    15760.441300       0.777662
    15785.319700       0.776188
    15810.276700       0.774732
    15835.312700       0.773293
    15860.428200       0.771871
    15885.623500       0.770467
    15910.899000       0.769081
    15936.255000       0.767712
    15961.691900       0.766361
    15987.210200       0.765029
    16012.810200       0.763714
    16038.492400       0.762418
    16064.257000       0.761140
    16090.104600       0.759881
    16116.035500       0.758640
    16142.050000       0.757417
    16168.148700       0.756213
    16194.332000       0.755028
    16220.600200       0.753862
    16246.953700       0.752714
    16273.393000       0.751585
    16299.918500       0.750474
    16326.530600       0.749382
    16353.229800       0.748309
    16380.016400       0.747255
    16406.890900       0.746219
    16433.853700       0.745202
    16460.905300       0.744204
    16488.046200       0.743224
    16515.276600       0.742263
    16542.597200       0.741320
    16570.008300       0.740395
    16597.510400       0.739489
    16625.103900       0.738600
    16652.789300       0.737730
    16680.567100       0.736878
    16708.437800       0.736043
    16736.401700       0.735226
    16764.459300       0.734426
    16792.611300       0.733644
    16820.857900       0.732879
    16849.199700       0.732131
    16877.637100       0.731400
    16906.170800       0.730685
    16934.801000       0.729987
    16963.528400       0.729305
    16992.353400       0.728639
    17021.276600       0.727988
    17050.298400       0.727353
    17079.419300       0.726734
    17108.639900       0.726129
    17137.960600       0.725539
    17167.382000       0.724963
    17196.904600       0.724402
    17226.528900       0.723854
    17256.255400       0.723320
    17286.084700       0.722799
    17316.017300       0.722291
    17346.053800       0.721796
    17376.194600       0.721312
    17406.440400       0.720841
    17436.791600       0.720381
    17467.248900       0.719932
    17497.812800       0.719493
    17528.483800       0.719065
    17559.262500       0.718647
    17590.149500       0.718239
    17621.145400       0.717839
    17652.250700       0.717448
    17683.466000       0.717065
    17714.791900       0.716690
    17746.228900       0.716323
    17777.777800       0.715962
    17809.439000       0.715607
    17841.213200       0.715258
    17873.101000       0.714915
    17905.103000       0.714577
    17937.219700       0.714242
    17969.451900       0.713912
    18001.800200       0.713585
    18034.265100       0.713261
    18066.847300       0.712938
    18099.547500       0.712618
    18132.366300       0.712299
    18165.304300       0.711980
    18198.362100       0.711661
    18231.540600       0.711341
    18264.840200       0.711021
    18298.261700       0.710698
    18331.805700       0.710373
    18365.472900       0.710045
    18399.264000       0.709713
    18433.179700       0.709377
    18467.220700       0.709036
    18501.387600       0.708689
    18535.681200       0.708337
    18570.102100       0.707977
    18604.651200       0.707610
    18639.329000       0.707234
    18674.136300       0.706850
    18709.073900       0.706456
    18744.142500       0.706052
    18779.342700       0.705637
    18814.675400       0.705210
    18850.141400       0.704770
    18885.741300       0.704318
    18921.475900       0.703852
    18957.346000       0.703372
    18993.352300       0.702876
    19029.495700       0.702364
    19065.776900       0.701836
    19102.196800       0.701290
    19138.756000       0.700726
    19175.455400       0.700143
    19212.295900       0.699541
    19249.278200       0.698918
    19286.403100       0.698274
    19323.671500       0.697608
    19361.084200       0.696920
    19398.642100       0.696208
    19436.346000       0.695472
    19474.196700       0.694711
    19512.195100       0.693924
    19550.342100       0.693111
    19588.638600       0.692270
    19627.085400       0.691402
    19665.683400       0.690505
    19704.433500       0.689578
    19743.336600       0.688621
    19782.393700       0.687633
    19821.605600       0.686613
    19860.973200       0.685560
    19900.497500       0.684474
    19940.179500       0.683354
    19980.020000       0.682199
    20020.020000       0.681008
    20060.180500       0.679781
    20100.502500       0.678517
    20140.986900       0.677215
    20181.634700       0.675874
    20222.446900       0.674493
    20263.424500       0.673073
    20304.568500       0.671612
    20345.880000       0.670108
    20387.359800       0.668563
    20429.009200       0.666975
    20470.829100       0.665342
    20512.820500       0.663665
    20554.984600       0.661943
    20597.322300       0.660175
    20639.834900       0.658361
    20682.523300       0.656499
    20725.388600       0.654589
    20768.432000       0.652630
    20811.654500       0.650623
    20855.057400       0.648565
    20898.641600       0.646457
    20942.408400       0.644297
    20986.358900       0.642086
    21030.494200       0.639822
    21074.815600       0.637505
    21119.324200       0.635135
    21164.021200       0.632710
    21208.907700       0.630231
    21253.985100       0.627696
    21299.254500       0.625106
    21344.717200       0.622459
    21390.374300       0.619755
    21436.227200       0.616995
    21482.277100       0.614176
    21528.525300       0.611299
    21574.973000       0.608363
    21621.621600       0.605368
    21668.472400       0.602314
    21715.526600       0.599200
    21762.785600       0.596025
    21810.250800       0.592790
    21857.923500       0.589494
    21905.805000       0.586136
    21953.896800       0.582717
    22002.200200       0.579236
    22050.716600       0.575693
    22099.447500       0.572088
    22148.394200       0.568420
    22197.558300       0.564690
    22246.941000       0.560897
    22296.544000       0.557041
    22346.368700       0.553121
    22396.416600       0.549139
    22446.689100       0.545093
    22497.187900       0.540984
    22547.914300       0.536812
    22598.870100       0.532577
    22650.056600       0.528279
    22701.475600       0.523918
    22753.128600       0.519493
    22805.017100       0.515006
    22857.142900       0.510457
    22909.507400       0.505845
    22962.112500       0.501171
    23014.959700       0.496436
    23068.050700       0.491638
    23121.387300       0.486780
    23174.971000       0.481861
    23228.803700       0.476882
    23282.887100       0.471843
    23337.222900       0.466744
    23391.812900       0.461587
    23446.658900       0.456372
    23501.762600       0.451099
    23557.126000       0.445769
    23612.750900       0.440383
    23668.639100       0.434941
    23724.792400       0.429445
    23781.212800       0.423895
    23837.902300       0.418292
    23894.862600       0.412637
    23952.095800       0.406931
    24009.603800       0.401176
    24067.388700       0.395371
    24125.452400       0.389518
    24183.796900       0.383619
    24242.424200       0.377674
    24301.336600       0.371685
    24360.535900       0.365653
    24420.024400       0.359580
    24479.804200       0.353467
    24539.877300       0.347316
    24600.246000       0.341127
    24660.912500       0.334903
    24721.878900       0.328646
    24783.147500       0.322356
    24844.720500       0.316036
    24906.600200       0.309688
    24968.789000       0.303314
    25031.289100       0.296915
    25094.102900       0.290493
    25157.232700       0.284052
    25220.681000       0.277592
    25284.450100       0.271116
    25348.542500       0.264627
    25412.960600       0.258126
    25477.707000       0.251616
