19,   19, MVIRI VIS channel from srf_MET2_1984168_1984169_1801-Release_S10EL_10.dat
Number of data points:
730
Wavenumber (cm-1)   Filter response
     8916.629500       0.000000
     8924.587200       0.000000
     8932.559200       0.000002
     8940.545400       0.000011
     8948.545900       0.000032
     8956.560700       0.000068
     8964.589900       0.000125
     8972.633500       0.000206
     8980.691500       0.000316
     8988.764000       0.000457
     8996.851100       0.000634
     9004.952700       0.000851
     9013.068900       0.001110
     9021.199800       0.001415
     9029.345400       0.001768
     9037.505600       0.002173
     9045.680700       0.002633
     9053.870500       0.003149
     9062.075200       0.003725
     9070.294800       0.004362
     9078.529300       0.005064
     9086.778700       0.005831
     9095.043200       0.006667
     9103.322700       0.007573
     9111.617300       0.008550
     9119.927000       0.009600
     9128.251900       0.010725
     9136.592100       0.011927
     9144.947400       0.013205
     9153.318100       0.014563
     9161.704100       0.015999
     9170.105500       0.017517
     9178.522300       0.019117
     9186.954500       0.020799
     9195.402300       0.022564
     9203.865600       0.024413
     9212.344500       0.026346
     9220.839100       0.028364
     9229.349300       0.030467
     9237.875300       0.032656
     9246.417000       0.034931
     9254.974500       0.037291
     9263.547900       0.039738
     9272.137200       0.042271
     9280.742500       0.044890
     9289.363700       0.047594
     9298.000900       0.050385
     9306.654300       0.053261
     9315.323700       0.056222
     9324.009300       0.059268
     9332.711200       0.062399
     9341.429200       0.065614
     9350.163600       0.068912
     9358.914400       0.072293
     9367.681500       0.075757
     9376.465100       0.079303
     9385.265100       0.082929
     9394.081700       0.086636
     9402.914900       0.090422
     9411.764700       0.094287
     9420.631200       0.098231
     9429.514400       0.102251
     9438.414300       0.106347
     9447.331100       0.110518
     9456.264800       0.114764
     9465.215300       0.119083
     9474.182900       0.123473
     9483.167400       0.127935
     9492.169000       0.132466
     9501.187600       0.137067
     9510.223500       0.141735
     9519.276500       0.146469
     9528.346800       0.151269
     9537.434400       0.156133
     9546.539400       0.161059
     9555.661700       0.166047
     9564.801500       0.171095
     9573.958800       0.176202
     9583.133700       0.181367
     9592.326100       0.186588
     9601.536200       0.191865
     9610.764100       0.197194
     9620.009600       0.202577
     9629.273000       0.208010
     9638.554200       0.213492
     9647.853400       0.219024
     9657.170400       0.224601
     9666.505600       0.230224
     9675.858700       0.235892
     9685.230000       0.241601
     9694.619500       0.247353
     9704.027200       0.253143
     9713.453100       0.258972
     9722.897400       0.264839
     9732.360100       0.270740
     9741.841200       0.276676
     9751.340800       0.282645
     9760.859000       0.288645
     9770.395700       0.294675
     9779.951100       0.300733
     9789.525200       0.306818
     9799.118100       0.312930
     9808.729800       0.319065
     9818.360300       0.325223
     9828.009800       0.331402
     9837.678300       0.337602
     9847.365800       0.343821
     9857.072400       0.350057
     9866.798200       0.356309
     9876.543200       0.362575
     9886.307500       0.368855
     9896.091000       0.375147
     9905.894000       0.381449
     9915.716400       0.387761
     9925.558300       0.394081
     9935.419800       0.400407
     9945.300800       0.406740
     9955.201600       0.413075
     9965.122100       0.419414
     9975.062300       0.425754
     9985.022500       0.432096
     9995.002500       0.438436
    10005.002500       0.444774
    10015.022500       0.451108
    10025.062700       0.457439
    10035.122900       0.463763
    10045.203400       0.470081
    10055.304200       0.476391
    10065.425300       0.482691
    10075.566800       0.488982
    10085.728700       0.495261
    10095.911200       0.501528
    10106.114200       0.507781
    10116.337900       0.514020
    10126.582300       0.520243
    10136.847400       0.526449
    10147.133400       0.532638
    10157.440300       0.538808
    10167.768200       0.544958
    10178.117000       0.551088
    10188.487000       0.557196
    10198.878100       0.563282
    10209.290500       0.569345
    10219.724100       0.575382
    10230.179000       0.581395
    10240.655400       0.587382
    10251.153300       0.593342
    10261.672700       0.599273
    10272.213700       0.605176
    10282.776300       0.611050
    10293.360800       0.616894
    10303.967000       0.622706
    10314.595200       0.628487
    10325.245200       0.634235
    10335.917300       0.639951
    10346.611500       0.645632
    10357.327800       0.651278
    10368.066400       0.656889
    10378.827200       0.662464
    10389.610400       0.668003
    10400.416000       0.673504
    10411.244100       0.678967
    10422.094800       0.684392
    10432.968200       0.689778
    10443.864200       0.695124
    10454.783100       0.700430
    10465.724800       0.705696
    10476.689400       0.710920
    10487.677000       0.716103
    10498.687700       0.721243
    10509.721500       0.726341
    10520.778500       0.731395
    10531.858900       0.736406
    10542.962600       0.741374
    10554.089700       0.746296
    10565.240400       0.751174
    10576.414600       0.756007
    10587.612500       0.760794
    10598.834100       0.765536
    10610.079600       0.770231
    10621.348900       0.774880
    10632.642200       0.779481
    10643.959600       0.784036
    10655.301000       0.788544
    10666.666700       0.793004
    10678.056600       0.797415
    10689.470900       0.801779
    10700.909600       0.806095
    10712.372800       0.810362
    10723.860600       0.814580
    10735.373100       0.818749
    10746.910300       0.822869
    10758.472300       0.826940
    10770.059200       0.830961
    10781.671200       0.834933
    10793.308100       0.838855
    10804.970300       0.842728
    10816.657700       0.846550
    10828.370300       0.850323
    10840.108400       0.854045
    10851.871900       0.857718
    10863.661100       0.861341
    10875.475800       0.864913
    10887.316300       0.868435
    10899.182600       0.871907
    10911.074700       0.875329
    10922.992900       0.878700
    10934.937100       0.882021
    10946.907500       0.885292
    10958.904100       0.888513
    10970.927000       0.891684
    10982.976400       0.894805
    10995.052200       0.897876
    11007.154700       0.900897
    11019.283700       0.903868
    11031.439600       0.906790
    11043.622300       0.909662
    11055.832000       0.912484
    11068.068600       0.915257
    11080.332400       0.917981
    11092.623400       0.920655
    11104.941700       0.923281
    11117.287400       0.925857
    11129.660500       0.928385
    11142.061300       0.930865
    11154.489700       0.933296
    11166.945800       0.935679
    11179.429800       0.938014
    11191.941800       0.940301
    11204.481800       0.942540
    11217.049900       0.944732
    11229.646300       0.946877
    11242.270900       0.948975
    11254.924000       0.951026
    11267.605600       0.953030
    11280.315800       0.954988
    11293.054800       0.956900
    11305.822500       0.958766
    11318.619100       0.960587
    11331.444800       0.962362
    11344.299500       0.964092
    11357.183400       0.965777
    11370.096600       0.967418
    11383.039300       0.969014
    11396.011400       0.970567
    11409.013100       0.972075
    11422.044500       0.973540
    11435.105800       0.974962
    11448.196900       0.976341
    11461.318100       0.977678
    11474.469300       0.978972
    11487.650800       0.980223
    11500.862600       0.981434
    11514.104800       0.982602
    11527.377500       0.983730
    11540.680900       0.984817
    11554.015000       0.985863
    11567.380000       0.986869
    11580.775900       0.987835
    11594.202900       0.988762
    11607.661100       0.989649
    11621.150500       0.990497
    11634.671300       0.991307
    11648.223600       0.992078
    11661.807600       0.992811
    11675.423200       0.993507
    11689.070700       0.994165
    11702.750100       0.994786
    11716.461600       0.995371
    11730.205300       0.995919
    11743.981200       0.996431
    11757.789500       0.996907
    11771.630400       0.997348
    11785.503800       0.997753
    11799.410000       0.998124
    11813.349100       0.998461
    11827.321100       0.998763
    11841.326200       0.999031
    11855.364600       0.999266
    11869.436200       0.999468
    11883.541300       0.999637
    11897.680000       0.999773
    11911.852300       0.999878
    11926.058400       0.999950
    11940.298500       0.999991
    11954.572600       1.000000
    11968.880900       0.999979
    11983.223500       0.999926
    11997.600500       0.999844
    12012.012000       0.999732
    12026.458200       0.999590
    12040.939200       0.999418
    12055.455100       0.999218
    12070.006000       0.998988
    12084.592100       0.998730
    12099.213600       0.998445
    12113.870400       0.998131
    12128.562800       0.997789
    12143.290800       0.997421
    12158.054700       0.997025
    12172.854500       0.996603
    12187.690400       0.996154
    12202.562500       0.995680
    12217.471000       0.995179
    12232.415900       0.994653
    12247.397400       0.994101
    12262.415700       0.993525
    12277.470800       0.992924
    12292.563000       0.992299
    12307.692300       0.991649
    12322.858900       0.990975
    12338.062900       0.990278
    12353.304500       0.989558
    12368.583800       0.988814
    12383.900900       0.988048
    12399.256000       0.987259
    12414.649300       0.986447
    12430.080800       0.985614
    12445.550700       0.984759
    12461.059200       0.983882
    12476.606400       0.982983
    12492.192400       0.982064
    12507.817400       0.981124
    12523.481500       0.980163
    12539.185000       0.979181
    12554.927800       0.978180
    12570.710200       0.977158
    12586.532400       0.976117
    12602.394500       0.975056
    12618.296500       0.973976
    12634.238800       0.972877
    12650.221400       0.971758
    12666.244500       0.970621
    12682.308200       0.969466
    12698.412700       0.968292
    12714.558200       0.967101
    12730.744700       0.965891
    12746.972600       0.964663
    12763.241900       0.963418
    12779.552700       0.962156
    12795.905300       0.960876
    12812.299800       0.959580
    12828.736400       0.958267
    12845.215200       0.956937
    12861.736300       0.955590
    12878.300100       0.954228
    12894.906500       0.952849
    12911.555800       0.951454
    12928.248200       0.950043
    12944.983800       0.948617
    12961.762800       0.947175
    12978.585300       0.945718
    12995.451600       0.944245
    13012.361700       0.942758
    13029.316000       0.941255
    13046.314400       0.939738
    13063.357300       0.938206
    13080.444700       0.936660
    13097.576900       0.935099
    13114.754100       0.933524
    13131.976400       0.931935
    13149.243900       0.930331
    13166.556900       0.928714
    13183.915600       0.927083
    13201.320100       0.925439
    13218.770700       0.923781
    13236.267400       0.922109
    13253.810500       0.920425
    13271.400100       0.918727
    13289.036500       0.917016
    13306.719900       0.915292
    13324.450400       0.913555
    13342.228200       0.911805
    13360.053400       0.910043
    13377.926400       0.908268
    13395.847300       0.906480
    13413.816200       0.904680
    13431.833400       0.902868
    13449.899100       0.901043
    13468.013500       0.899207
    13486.176700       0.897358
    13504.388900       0.895498
    13522.650400       0.893625
    13540.961400       0.891741
    13559.322000       0.889845
    13577.732500       0.887937
    13596.193100       0.886018
    13614.703900       0.884087
    13633.265200       0.882145
    13651.877100       0.880191
    13670.540000       0.878226
    13689.253900       0.876250
    13708.019200       0.874263
    13726.836000       0.872265
    13745.704500       0.870256
    13764.624900       0.868235
    13783.597500       0.866204
    13802.622500       0.864162
    13821.700100       0.862110
    13840.830400       0.860046
    13860.013900       0.857972
    13879.250500       0.855888
    13898.540700       0.853793
    13917.884500       0.851687
    13937.282200       0.849571
    13956.734100       0.847445
    13976.240400       0.845309
    13995.801300       0.843162
    14015.417000       0.841006
    14035.087700       0.838839
    14054.813800       0.836662
    14074.595400       0.834475
    14094.432700       0.832278
    14114.326000       0.830072
    14134.275600       0.827855
    14154.281700       0.825629
    14174.344400       0.823393
    14194.464200       0.821148
    14214.641100       0.818892
    14234.875400       0.816628
    14255.167500       0.814354
    14275.517500       0.812070
    14295.925700       0.809778
    14316.392300       0.807476
    14336.917600       0.805164
    14357.501800       0.802844
    14378.145200       0.800515
    14398.848100       0.798176
    14419.610700       0.795828
    14440.433200       0.793472
    14461.316000       0.791107
    14482.259200       0.788733
    14503.263200       0.786350
    14524.328200       0.783958
    14545.454500       0.781558
    14566.642400       0.779150
    14587.892000       0.776733
    14609.203800       0.774307
    14630.577900       0.771873
    14652.014700       0.769431
    14673.514300       0.766981
    14695.077100       0.764523
    14716.703500       0.762056
    14738.393500       0.759582
    14760.147600       0.757100
    14781.966000       0.754610
    14803.849000       0.752112
    14825.796900       0.749607
    14847.809900       0.747093
    14869.888500       0.744573
    14892.032800       0.742045
    14914.243100       0.739510
    14936.519800       0.736967
    14958.863100       0.734417
    14981.273400       0.731861
    15003.750900       0.729297
    15026.296000       0.726726
    15048.909000       0.724148
    15071.590100       0.721564
    15094.339600       0.718973
    15117.158000       0.716376
    15140.045400       0.713772
    15163.002300       0.711162
    15186.028900       0.708545
    15209.125500       0.705923
    15232.292500       0.703294
    15255.530100       0.700659
    15278.838800       0.698019
    15302.218800       0.695373
    15325.670500       0.692721
    15349.194200       0.690063
    15372.790200       0.687401
    15396.458800       0.684733
    15420.200500       0.682059
    15444.015400       0.679381
    15467.904100       0.676698
    15491.866800       0.674010
    15515.903800       0.671317
    15540.015500       0.668619
    15564.202300       0.665917
    15588.464500       0.663211
    15612.802500       0.660500
    15637.216600       0.657785
    15661.707100       0.655066
    15686.274500       0.652344
    15710.919100       0.649618
    15735.641200       0.646888
    15760.441300       0.644154
    15785.319700       0.641417
    15810.276700       0.638677
    15835.312700       0.635934
    15860.428200       0.633188
    15885.623500       0.630439
    15910.899000       0.627687
    15936.255000       0.624933
    15961.691900       0.622176
    15987.210200       0.619417
    16012.810200       0.616656
    16038.492400       0.613893
    16064.257000       0.611128
    16090.104600       0.608362
    16116.035500       0.605593
    16142.050000       0.602824
    16168.148700       0.600053
    16194.332000       0.597281
    16220.600200       0.594508
    16246.953700       0.591734
    16273.393000       0.588959
    16299.918500       0.586184
    16326.530600       0.583408
    16353.229800       0.580632
    16380.016400       0.577856
    16406.890900       0.575080
    16433.853700       0.572305
    16460.905300       0.569529
    16488.046200       0.566754
    16515.276600       0.563980
    16542.597200       0.561206
    16570.008300       0.558434
    16597.510400       0.555662
    16625.103900       0.552892
    16652.789300       0.550123
    16680.567100       0.547355
    16708.437800       0.544589
    16736.401700       0.541826
    16764.459300       0.539063
    16792.611300       0.536303
    16820.857900       0.533546
    16849.199700       0.530791
    16877.637100       0.528038
    16906.170800       0.525288
    16934.801000       0.522540
    16963.528400       0.519796
    16992.353400       0.517055
    17021.276600       0.514317
    17050.298400       0.511583
    17079.419300       0.508852
    17108.639900       0.506124
    17137.960600       0.503401
    17167.382000       0.500681
    17196.904600       0.497965
    17226.528900       0.495254
    17256.255400       0.492547
    17286.084700       0.489844
    17316.017300       0.487146
    17346.053800       0.484453
    17376.194600       0.481765
    17406.440400       0.479081
    17436.791600       0.476402
    17467.248900       0.473729
    17497.812800       0.471061
    17528.483800       0.468399
    17559.262500       0.465742
    17590.149500       0.463090
    17621.145400       0.460444
    17652.250700       0.457804
    17683.466000       0.455171
    17714.791900       0.452542
    17746.228900       0.449921
    17777.777800       0.447305
    17809.439000       0.444696
    17841.213200       0.442093
    17873.101000       0.439497
    17905.103000       0.436907
    17937.219700       0.434324
    17969.451900       0.431748
    18001.800200       0.429178
    18034.265100       0.426615
    18066.847300       0.424059
    18099.547500       0.421511
    18132.366300       0.418969
    18165.304300       0.416434
    18198.362100       0.413907
    18231.540600       0.411387
    18264.840200       0.408874
    18298.261700       0.406368
    18331.805700       0.403870
    18365.472900       0.401379
    18399.264000       0.398895
    18433.179700       0.396419
    18467.220700       0.393950
    18501.387600       0.391489
    18535.681200       0.389036
    18570.102100       0.386589
    18604.651200       0.384151
    18639.329000       0.381720
    18674.136300       0.379296
    18709.073900       0.376880
    18744.142500       0.374471
    18779.342700       0.372070
    18814.675400       0.369676
    18850.141400       0.367290
    18885.741300       0.364911
    18921.475900       0.362539
    18957.346000       0.360175
    18993.352300       0.357818
    19029.495700       0.355469
    19065.776900       0.353126
    19102.196800       0.350791
    19138.756000       0.348462
    19175.455400       0.346141
    19212.295900       0.343827
    19249.278200       0.341520
    19286.403100       0.339219
    19323.671500       0.336925
    19361.084200       0.334638
    19398.642100       0.332357
    19436.346000       0.330083
    19474.196700       0.327815
    19512.195100       0.325553
    19550.342100       0.323297
    19588.638600       0.321048
    19627.085400       0.318804
    19665.683400       0.316566
    19704.433500       0.314334
    19743.336600       0.312107
    19782.393700       0.309885
    19821.605600       0.307669
    19860.973200       0.305458
    19900.497500       0.303252
    19940.179500       0.301050
    19980.020000       0.298853
    20020.020000       0.296661
    20060.180500       0.294472
    20100.502500       0.292288
    20140.986900       0.290108
    20181.634700       0.287931
    20222.446900       0.285758
    20263.424500       0.283589
    20304.568500       0.281422
    20345.880000       0.279259
    20387.359800       0.277098
    20429.009200       0.274940
    20470.829100       0.272784
    20512.820500       0.270630
    20554.984600       0.268478
    20597.322300       0.266328
    20639.834900       0.264179
    20682.523300       0.262032
    20725.388600       0.259886
    20768.432000       0.257740
    20811.654500       0.255595
    20855.057400       0.253451
    20898.641600       0.251306
    20942.408400       0.249162
    20986.358900       0.247017
    21030.494200       0.244871
    21074.815600       0.242724
    21119.324200       0.240577
    21164.021200       0.238428
    21208.907700       0.236277
    21253.985100       0.234124
    21299.254500       0.231970
    21344.717200       0.229813
    21390.374300       0.227653
    21436.227200       0.225491
    21482.277100       0.223325
    21528.525300       0.221156
    21574.973000       0.218983
    21621.621600       0.216807
    21668.472400       0.214626
    21715.526600       0.212441
    21762.785600       0.210251
    21810.250800       0.208056
    21857.923500       0.205857
    21905.805000       0.203651
    21953.896800       0.201441
    22002.200200       0.199224
    22050.716600       0.197001
    22099.447500       0.194772
    22148.394200       0.192536
    22197.558300       0.190294
    22246.941000       0.188044
    22296.544000       0.185788
    22346.368700       0.183523
    22396.416600       0.181251
    22446.689100       0.178972
    22497.187900       0.176684
    22547.914300       0.174388
    22598.870100       0.172083
    22650.056600       0.169770
    22701.475600       0.167448
    22753.128600       0.165118
    22805.017100       0.162778
    22857.142900       0.160428
    22909.507400       0.158070
    22962.112500       0.155702
    23014.959700       0.153324
    23068.050700       0.150936
    23121.387300       0.148539
    23174.971000       0.146131
    23228.803700       0.143714
    23282.887100       0.141286
    23337.222900       0.138848
    23391.812900       0.136400
    23446.658900       0.133942
    23501.762600       0.131474
    23557.126000       0.128995
    23612.750900       0.126506
    23668.639100       0.124006
    23724.792400       0.121497
    23781.212800       0.118977
    23837.902300       0.116448
    23894.862600       0.113908
    23952.095800       0.111359
    24009.603800       0.108799
    24067.388700       0.106231
    24125.452400       0.103652
    24183.796900       0.101065
    24242.424200       0.098468
    24301.336600       0.095863
    24360.535900       0.093249
    24420.024400       0.090627
    24479.804200       0.087997
    24539.877300       0.085359
    24600.246000       0.082713
    24660.912500       0.080061
    24721.878900       0.077402
    24783.147500       0.074737
    24844.720500       0.072066
    24906.600200       0.069390
    24968.789000       0.066710
    25031.289100       0.064024
    25094.102900       0.061336
    25157.232700       0.058644
    25220.681000       0.055949
    25284.450100       0.053253
    25348.542500       0.050556
    25412.960600       0.047858
    25477.707000       0.045161
