34,   34, MVIRI VIS channel from srf_MET5_1995168_1995169_1801-Release_S10EL_10.dat
Number of data points:
806
Wavenumber (cm-1)   Filter response
     8350.730700       0.000000
     8357.710000       0.000000
     8364.701000       0.000000
     8371.703600       0.000001
     8378.718100       0.000004
     8385.744200       0.000009
     8392.782200       0.000016
     8399.832000       0.000026
     8406.893700       0.000040
     8413.967200       0.000059
     8421.052600       0.000081
     8428.150000       0.000109
     8435.259400       0.000142
     8442.380800       0.000182
     8449.514200       0.000227
     8456.659600       0.000279
     8463.817200       0.000339
     8470.986900       0.000406
     8478.168700       0.000481
     8485.362700       0.000564
     8492.569000       0.000655
     8499.787500       0.000756
     8507.018300       0.000866
     8514.261400       0.000985
     8521.516800       0.001114
     8528.784600       0.001253
     8536.064900       0.001402
     8543.357500       0.001562
     8550.662700       0.001733
     8557.980300       0.001915
     8565.310500       0.002109
     8572.653200       0.002314
     8580.008600       0.002531
     8587.376600       0.002760
     8594.757200       0.003001
     8602.150500       0.003255
     8609.556600       0.003522
     8616.975400       0.003801
     8624.407100       0.004093
     8631.851500       0.004399
     8639.308900       0.004718
     8646.779100       0.005051
     8654.262200       0.005397
     8661.758300       0.005758
     8669.267400       0.006133
     8676.789600       0.006521
     8684.324800       0.006925
     8691.873100       0.007342
     8699.434500       0.007775
     8707.009100       0.008223
     8714.596900       0.008685
     8722.198000       0.009163
     8729.812300       0.009655
     8737.439900       0.010164
     8745.080900       0.010688
     8752.735200       0.011227
     8760.403000       0.011782
     8768.084200       0.012354
     8775.778900       0.012941
     8783.487000       0.013545
     8791.208800       0.014164
     8798.944100       0.014801
     8806.693100       0.015453
     8814.455700       0.016123
     8822.232000       0.016809
     8830.022100       0.017512
     8837.825900       0.018232
     8845.643500       0.018969
     8853.475000       0.019724
     8861.320300       0.020495
     8869.179600       0.021284
     8877.052800       0.022091
     8884.940000       0.022915
     8892.841300       0.023757
     8900.756600       0.024617
     8908.686000       0.025495
     8916.629500       0.026391
     8924.587200       0.027305
     8932.559200       0.028238
     8940.545400       0.029188
     8948.545900       0.030158
     8956.560700       0.031146
     8964.589900       0.032152
     8972.633500       0.033177
     8980.691500       0.034222
     8988.764000       0.035285
     8996.851100       0.036367
     9004.952700       0.037469
     9013.068900       0.038590
     9021.199800       0.039730
     9029.345400       0.040890
     9037.505600       0.042070
     9045.680700       0.043269
     9053.870500       0.044488
     9062.075200       0.045727
     9070.294800       0.046985
     9078.529300       0.048264
     9086.778700       0.049564
     9095.043200       0.050883
     9103.322700       0.052223
     9111.617300       0.053583
     9119.927000       0.054964
     9128.251900       0.056366
     9136.592100       0.057788
     9144.947400       0.059231
     9153.318100       0.060695
     9161.704100       0.062181
     9170.105500       0.063687
     9178.522300       0.065215
     9186.954500       0.066764
     9195.402300       0.068334
     9203.865600       0.069926
     9212.344500       0.071539
     9220.839100       0.073174
     9229.349300       0.074831
     9237.875300       0.076510
     9246.417000       0.078210
     9254.974500       0.079933
     9263.547900       0.081677
     9272.137200       0.083444
     9280.742500       0.085233
     9289.363700       0.087044
     9298.000900       0.088878
     9306.654300       0.090734
     9315.323700       0.092612
     9324.009300       0.094513
     9332.711200       0.096437
     9341.429200       0.098383
     9350.163600       0.100353
     9358.914400       0.102345
     9367.681500       0.104360
     9376.465100       0.106398
     9385.265100       0.108458
     9394.081700       0.110542
     9402.914900       0.112649
     9411.764700       0.114779
     9420.631200       0.116933
     9429.514400       0.119109
     9438.414300       0.121309
     9447.331100       0.123532
     9456.264800       0.125778
     9465.215300       0.128048
     9474.182900       0.130341
     9483.167400       0.132658
     9492.169000       0.134998
     9501.187600       0.137362
     9510.223500       0.139749
     9519.276500       0.142159
     9528.346800       0.144594
     9537.434400       0.147051
     9546.539400       0.149532
     9555.661700       0.152037
     9564.801500       0.154565
     9573.958800       0.157117
     9583.133700       0.159692
     9592.326100       0.162291
     9601.536200       0.164914
     9610.764100       0.167559
     9620.009600       0.170229
     9629.273000       0.172922
     9638.554200       0.175638
     9647.853400       0.178377
     9657.170400       0.181140
     9666.505600       0.183927
     9675.858700       0.186736
     9685.230000       0.189569
     9694.619500       0.192425
     9704.027200       0.195304
     9713.453100       0.198207
     9722.897400       0.201132
     9732.360100       0.204080
     9741.841200       0.207051
     9751.340800       0.210045
     9760.859000       0.213062
     9770.395700       0.216102
     9779.951100       0.219164
     9789.525200       0.222248
     9799.118100       0.225355
     9808.729800       0.228484
     9818.360300       0.231636
     9828.009800       0.234810
     9837.678300       0.238005
     9847.365800       0.241223
     9857.072400       0.244462
     9866.798200       0.247723
     9876.543200       0.251006
     9886.307500       0.254310
     9896.091000       0.257635
     9905.894000       0.260982
     9915.716400       0.264349
     9925.558300       0.267737
     9935.419800       0.271147
     9945.300800       0.274576
     9955.201600       0.278026
     9965.122100       0.281497
     9975.062300       0.284987
     9985.022500       0.288497
     9995.002500       0.292028
    10005.002500       0.295577
    10015.022500       0.299146
    10025.062700       0.302734
    10035.122900       0.306342
    10045.203400       0.309968
    10055.304200       0.313612
    10065.425300       0.317275
    10075.566800       0.320957
    10085.728700       0.324656
    10095.911200       0.328373
    10106.114200       0.332108
    10116.337900       0.335860
    10126.582300       0.339629
    10136.847400       0.343415
    10147.133400       0.347217
    10157.440300       0.351036
    10167.768200       0.354872
    10178.117000       0.358723
    10188.487000       0.362589
    10198.878100       0.366472
    10209.290500       0.370369
    10219.724100       0.374281
    10230.179000       0.378208
    10240.655400       0.382150
    10251.153300       0.386105
    10261.672700       0.390074
    10272.213700       0.394056
    10282.776300       0.398052
    10293.360800       0.402061
    10303.967000       0.406083
    10314.595200       0.410117
    10325.245200       0.414162
    10335.917300       0.418220
    10346.611500       0.422289
    10357.327800       0.426370
    10368.066400       0.430461
    10378.827200       0.434562
    10389.610400       0.438674
    10400.416000       0.442796
    10411.244100       0.446927
    10422.094800       0.451068
    10432.968200       0.455217
    10443.864200       0.459375
    10454.783100       0.463541
    10465.724800       0.467715
    10476.689400       0.471897
    10487.677000       0.476086
    10498.687700       0.480281
    10509.721500       0.484484
    10520.778500       0.488692
    10531.858900       0.492906
    10542.962600       0.497126
    10554.089700       0.501350
    10565.240400       0.505579
    10576.414600       0.509813
    10587.612500       0.514050
    10598.834100       0.518292
    10610.079600       0.522536
    10621.348900       0.526784
    10632.642200       0.531033
    10643.959600       0.535285
    10655.301000       0.539539
    10666.666700       0.543794
    10678.056600       0.548050
    10689.470900       0.552306
    10700.909600       0.556563
    10712.372800       0.560820
    10723.860600       0.565076
    10735.373100       0.569331
    10746.910300       0.573585
    10758.472300       0.577836
    10770.059200       0.582086
    10781.671200       0.586333
    10793.308100       0.590577
    10804.970300       0.594819
    10816.657700       0.599056
    10828.370300       0.603289
    10840.108400       0.607517
    10851.871900       0.611741
    10863.661100       0.615960
    10875.475800       0.620172
    10887.316300       0.624379
    10899.182600       0.628579
    10911.074700       0.632772
    10922.992900       0.636958
    10934.937100       0.641136
    10946.907500       0.645305
    10958.904100       0.649467
    10970.927000       0.653619
    10982.976400       0.657763
    10995.052200       0.661896
    11007.154700       0.666019
    11019.283700       0.670132
    11031.439600       0.674234
    11043.622300       0.678325
    11055.832000       0.682403
    11068.068600       0.686470
    11080.332400       0.690524
    11092.623400       0.694566
    11104.941700       0.698594
    11117.287400       0.702608
    11129.660500       0.706608
    11142.061300       0.710594
    11154.489700       0.714565
    11166.945800       0.718521
    11179.429800       0.722461
    11191.941800       0.726386
    11204.481800       0.730293
    11217.049900       0.734184
    11229.646300       0.738058
    11242.270900       0.741914
    11254.924000       0.745753
    11267.605600       0.749573
    11280.315800       0.753375
    11293.054800       0.757157
    11305.822500       0.760921
    11318.619100       0.764664
    11331.444800       0.768388
    11344.299500       0.772091
    11357.183400       0.775773
    11370.096600       0.779434
    11383.039300       0.783074
    11396.011400       0.786692
    11409.013100       0.790287
    11422.044500       0.793860
    11435.105800       0.797410
    11448.196900       0.800937
    11461.318100       0.804441
    11474.469300       0.807920
    11487.650800       0.811376
    11500.862600       0.814807
    11514.104800       0.818213
    11527.377500       0.821594
    11540.680900       0.824949
    11554.015000       0.828279
    11567.380000       0.831583
    11580.775900       0.834861
    11594.202900       0.838111
    11607.661100       0.841335
    11621.150500       0.844532
    11634.671300       0.847701
    11648.223600       0.850842
    11661.807600       0.853956
    11675.423200       0.857041
    11689.070700       0.860097
    11702.750100       0.863125
    11716.461600       0.866123
    11730.205300       0.869092
    11743.981200       0.872032
    11757.789500       0.874942
    11771.630400       0.877821
    11785.503800       0.880670
    11799.410000       0.883489
    11813.349100       0.886277
    11827.321100       0.889034
    11841.326200       0.891760
    11855.364600       0.894454
    11869.436200       0.897117
    11883.541300       0.899748
    11897.680000       0.902347
    11911.852300       0.904913
    11926.058400       0.907448
    11940.298500       0.909950
    11954.572600       0.912419
    11968.880900       0.914855
    11983.223500       0.917258
    11997.600500       0.919628
    12012.012000       0.921964
    12026.458200       0.924267
    12040.939200       0.926537
    12055.455100       0.928772
    12070.006000       0.930974
    12084.592100       0.933141
    12099.213600       0.935275
    12113.870400       0.937374
    12128.562800       0.939439
    12143.290800       0.941469
    12158.054700       0.943465
    12172.854500       0.945426
    12187.690400       0.947352
    12202.562500       0.949244
    12217.471000       0.951101
    12232.415900       0.952923
    12247.397400       0.954709
    12262.415700       0.956461
    12277.470800       0.958178
    12292.563000       0.959859
    12307.692300       0.961505
    12322.858900       0.963117
    12338.062900       0.964692
    12353.304500       0.966233
    12368.583800       0.967738
    12383.900900       0.969208
    12399.256000       0.970643
    12414.649300       0.972043
    12430.080800       0.973407
    12445.550700       0.974736
    12461.059200       0.976030
    12476.606400       0.977289
    12492.192400       0.978513
    12507.817400       0.979701
    12523.481500       0.980855
    12539.185000       0.981974
    12554.927800       0.983057
    12570.710200       0.984106
    12586.532400       0.985120
    12602.394500       0.986100
    12618.296500       0.987044
    12634.238800       0.987955
    12650.221400       0.988831
    12666.244500       0.989672
    12682.308200       0.990480
    12698.412700       0.991253
    12714.558200       0.991993
    12730.744700       0.992698
    12746.972600       0.993370
    12763.241900       0.994009
    12779.552700       0.994614
    12795.905300       0.995185
    12812.299800       0.995724
    12828.736400       0.996230
    12845.215200       0.996703
    12861.736300       0.997143
    12878.300100       0.997551
    12894.906500       0.997927
    12911.555800       0.998271
    12928.248200       0.998583
    12944.983800       0.998863
    12961.762800       0.999112
    12978.585300       0.999330
    12995.451600       0.999517
    13012.361700       0.999673
    13029.316000       0.999798
    13046.314400       0.999894
    13063.357300       0.999959
    13080.444700       0.999994
    13097.576900       1.000000
    13114.754100       0.999977
    13131.976400       0.999924
    13149.243900       0.999843
    13166.556900       0.999733
    13183.915600       0.999595
    13201.320100       0.999429
    13218.770700       0.999236
    13236.267400       0.999015
    13253.810500       0.998767
    13271.400100       0.998493
    13289.036500       0.998191
    13306.719900       0.997864
    13324.450400       0.997511
    13342.228200       0.997132
    13360.053400       0.996728
    13377.926400       0.996300
    13395.847300       0.995846
    13413.816200       0.995369
    13431.833400       0.994867
    13449.899100       0.994342
    13468.013500       0.993794
    13486.176700       0.993223
    13504.388900       0.992630
    13522.650400       0.992014
    13540.961400       0.991377
    13559.322000       0.990718
    13577.732500       0.990038
    13596.193100       0.989337
    13614.703900       0.988617
    13633.265200       0.987876
    13651.877100       0.987115
    13670.540000       0.986336
    13689.253900       0.985537
    13708.019200       0.984720
    13726.836000       0.983886
    13745.704500       0.983033
    13764.624900       0.982163
    13783.597500       0.981277
    13802.622500       0.980374
    13821.700100       0.979455
    13840.830400       0.978520
    13860.013900       0.977570
    13879.250500       0.976605
    13898.540700       0.975626
    13917.884500       0.974632
    13937.282200       0.973625
    13956.734100       0.972605
    13976.240400       0.971572
    13995.801300       0.970527
    14015.417000       0.969470
    14035.087700       0.968401
    14054.813800       0.967321
    14074.595400       0.966230
    14094.432700       0.965129
    14114.326000       0.964018
    14134.275600       0.962898
    14154.281700       0.961768
    14174.344400       0.960630
    14194.464200       0.959484
    14214.641100       0.958330
    14234.875400       0.957168
    14255.167500       0.956000
    14275.517500       0.954825
    14295.925700       0.953644
    14316.392300       0.952457
    14336.917600       0.951265
    14357.501800       0.950068
    14378.145200       0.948866
    14398.848100       0.947661
    14419.610700       0.946452
    14440.433200       0.945239
    14461.316000       0.944024
    14482.259200       0.942807
    14503.263200       0.941587
    14524.328200       0.940366
    14545.454500       0.939144
    14566.642400       0.937921
    14587.892000       0.936697
    14609.203800       0.935473
    14630.577900       0.934250
    14652.014700       0.933028
    14673.514300       0.931807
    14695.077100       0.930587
    14716.703500       0.929370
    14738.393500       0.928154
    14760.147600       0.926942
    14781.966000       0.925732
    14803.849000       0.924526
    14825.796900       0.923324
    14847.809900       0.922125
    14869.888500       0.920932
    14892.032800       0.919743
    14914.243100       0.918560
    14936.519800       0.917382
    14958.863100       0.916210
    14981.273400       0.915044
    15003.750900       0.913885
    15026.296000       0.912733
    15048.909000       0.911588
    15071.590100       0.910451
    15094.339600       0.909321
    15117.158000       0.908200
    15140.045400       0.907087
    15163.002300       0.905983
    15186.028900       0.904888
    15209.125500       0.903803
    15232.292500       0.902727
    15255.530100       0.901661
    15278.838800       0.900606
    15302.218800       0.899561
    15325.670500       0.898526
    15349.194200       0.897503
    15372.790200       0.896491
    15396.458800       0.895490
    15420.200500       0.894501
    15444.015400       0.893524
    15467.904100       0.892560
    15491.866800       0.891607
    15515.903800       0.890668
    15540.015500       0.889741
    15564.202300       0.888827
    15588.464500       0.887926
    15612.802500       0.887038
    15637.216600       0.886165
    15661.707100       0.885304
    15686.274500       0.884458
    15710.919100       0.883626
    15735.641200       0.882807
    15760.441300       0.882003
    15785.319700       0.881214
    15810.276700       0.880439
    15835.312700       0.879678
    15860.428200       0.878932
    15885.623500       0.878202
    15910.899000       0.877485
    15936.255000       0.876784
    15961.691900       0.876098
    15987.210200       0.875427
    16012.810200       0.874771
    16038.492400       0.874131
    16064.257000       0.873505
    16090.104600       0.872895
    16116.035500       0.872300
    16142.050000       0.871720
    16168.148700       0.871155
    16194.332000       0.870606
    16220.600200       0.870072
    16246.953700       0.869552
    16273.393000       0.869048
    16299.918500       0.868560
    16326.530600       0.868086
    16353.229800       0.867626
    16380.016400       0.867182
    16406.890900       0.866753
    16433.853700       0.866338
    16460.905300       0.865937
    16488.046200       0.865551
    16515.276600       0.865179
    16542.597200       0.864822
    16570.008300       0.864478
    16597.510400       0.864148
    16625.103900       0.863831
    16652.789300       0.863528
    16680.567100       0.863238
    16708.437800       0.862962
    16736.401700       0.862698
    16764.459300       0.862446
    16792.611300       0.862207
    16820.857900       0.861980
    16849.199700       0.861765
    16877.637100       0.861561
    16906.170800       0.861369
    16934.801000       0.861187
    16963.528400       0.861016
    16992.353400       0.860856
    17021.276600       0.860705
    17050.298400       0.860564
    17079.419300       0.860433
    17108.639900       0.860311
    17137.960600       0.860197
    17167.382000       0.860091
    17196.904600       0.859993
    17226.528900       0.859903
    17256.255400       0.859820
    17286.084700       0.859743
    17316.017300       0.859673
    17346.053800       0.859608
    17376.194600       0.859549
    17406.440400       0.859494
    17436.791600       0.859444
    17467.248900       0.859398
    17497.812800       0.859355
    17528.483800       0.859315
    17559.262500       0.859277
    17590.149500       0.859241
    17621.145400       0.859207
    17652.250700       0.859173
    17683.466000       0.859139
    17714.791900       0.859105
    17746.228900       0.859070
    17777.777800       0.859034
    17809.439000       0.858995
    17841.213200       0.858954
    17873.101000       0.858909
    17905.103000       0.858860
    17937.219700       0.858807
    17969.451900       0.858748
    18001.800200       0.858684
    18034.265100       0.858612
    18066.847300       0.858534
    18099.547500       0.858448
    18132.366300       0.858353
    18165.304300       0.858248
    18198.362100       0.858134
    18231.540600       0.858009
    18264.840200       0.857872
    18298.261700       0.857723
    18331.805700       0.857561
    18365.472900       0.857385
    18399.264000       0.857195
    18433.179700       0.856990
    18467.220700       0.856768
    18501.387600       0.856530
    18535.681200       0.856274
    18570.102100       0.855999
    18604.651200       0.855706
    18639.329000       0.855392
    18674.136300       0.855058
    18709.073900       0.854701
    18744.142500       0.854322
    18779.342700       0.853920
    18814.675400       0.853494
    18850.141400       0.853042
    18885.741300       0.852565
    18921.475900       0.852060
    18957.346000       0.851528
    18993.352300       0.850968
    19029.495700       0.850378
    19065.776900       0.849758
    19102.196800       0.849106
    19138.756000       0.848422
    19175.455400       0.847705
    19212.295900       0.846955
    19249.278200       0.846169
    19286.403100       0.845348
    19323.671500       0.844490
    19361.084200       0.843594
    19398.642100       0.842660
    19436.346000       0.841686
    19474.196700       0.840672
    19512.195100       0.839617
    19550.342100       0.838519
    19588.638600       0.837378
    19627.085400       0.836193
    19665.683400       0.834963
    19704.433500       0.833687
    19743.336600       0.832364
    19782.393700       0.830993
    19821.605600       0.829574
    19860.973200       0.828104
    19900.497500       0.826584
    19940.179500       0.825012
    19980.020000       0.823388
    20020.020000       0.821710
    20060.180500       0.819977
    20100.502500       0.818189
    20140.986900       0.816345
    20181.634700       0.814444
    20222.446900       0.812484
    20263.424500       0.810465
    20304.568500       0.808387
    20345.880000       0.806247
    20387.359800       0.804045
    20429.009200       0.801781
    20470.829100       0.799453
    20512.820500       0.797060
    20554.984600       0.794602
    20597.322300       0.792078
    20639.834900       0.789486
    20682.523300       0.786827
    20725.388600       0.784098
    20768.432000       0.781300
    20811.654500       0.778431
    20855.057400       0.775490
    20898.641600       0.772477
    20942.408400       0.769391
    20986.358900       0.766231
    21030.494200       0.762996
    21074.815600       0.759686
    21119.324200       0.756300
    21164.021200       0.752836
    21208.907700       0.749294
    21253.985100       0.745674
    21299.254500       0.741975
    21344.717200       0.738195
    21390.374300       0.734335
    21436.227200       0.730393
    21482.277100       0.726369
    21528.525300       0.722262
    21574.973000       0.718072
    21621.621600       0.713798
    21668.472400       0.709439
    21715.526600       0.704994
    21762.785600       0.700464
    21810.250800       0.695847
    21857.923500       0.691144
    21905.805000       0.686352
    21953.896800       0.681473
    22002.200200       0.676505
    22050.716600       0.671449
    22099.447500       0.666302
    22148.394200       0.661066
    22197.558300       0.655740
    22246.941000       0.650323
    22296.544000       0.644814
    22346.368700       0.639215
    22396.416600       0.633524
    22446.689100       0.627740
    22497.187900       0.621865
    22547.914300       0.615897
    22598.870100       0.609836
    22650.056600       0.603682
    22701.475600       0.597435
    22753.128600       0.591096
    22805.017100       0.584662
    22857.142900       0.578135
    22909.507400       0.571515
    22962.112500       0.564802
    23014.959700       0.557995
    23068.050700       0.551094
    23121.387300       0.544100
    23174.971000       0.537013
    23228.803700       0.529833
    23282.887100       0.522560
    23337.222900       0.515194
    23391.812900       0.507735
    23446.658900       0.500184
    23501.762600       0.492542
    23557.126000       0.484807
    23612.750900       0.476982
    23668.639100       0.469066
    23724.792400       0.461059
    23781.212800       0.452963
    23837.902300       0.444777
    23894.862600       0.436503
    23952.095800       0.428140
    24009.603800       0.419690
    24067.388700       0.411153
    24125.452400       0.402530
    24183.796900       0.393822
    24242.424200       0.385029
    24301.336600       0.376153
    24360.535900       0.367194
    24420.024400       0.358154
    24479.804200       0.349032
    24539.877300       0.339831
    24600.246000       0.330552
    24660.912500       0.321195
    24721.878900       0.311762
    24783.147500       0.302253
    24844.720500       0.292671
    24906.600200       0.283017
    24968.789000       0.273292
    25031.289100       0.263497
    25094.102900       0.253635
    25157.232700       0.243706
    25220.681000       0.233711
    25284.450100       0.223654
    25348.542500       0.213535
    25412.960600       0.203357
    25477.707000       0.193121
