 6    ,ATSR-2 Flight Model FPA 0.67um
Number of data points:
113
Wavenumber (cm-1)   Filter response
    14598.540100       0.000040
    14609.203800       0.000040
    14619.883000       0.000020
    14630.577900       0.000040
    14641.288400       0.000040
    14652.014700       0.000060
    14662.756600       0.000060
    14673.514300       0.000060
    14684.287800       0.000100
    14695.077100       0.000140
    14705.882400       0.000140
    14716.703500       0.000240
    14727.540500       0.000370
    14738.393500       0.000510
    14749.262500       0.000700
    14760.147600       0.001010
    14771.048700       0.001280
    14781.966000       0.001730
    14792.899400       0.002280
    14803.849000       0.002840
    14814.814800       0.003720
    14825.796900       0.004920
    14836.795300       0.006210
    14847.809900       0.008430
    14858.841000       0.011860
    14869.888500       0.016390
    14880.952400       0.025050
    14892.032800       0.040740
    14903.129700       0.063430
    14914.243100       0.112230
    14925.373100       0.204200
    14936.519800       0.331760
    14947.683100       0.535400
    14958.863100       0.739290
    14970.059900       0.851510
    14981.273400       0.914390
    14992.503700       0.936890
    15003.750900       0.950850
    15015.015000       0.963730
    15026.296000       0.967640
    15037.594000       0.957660
    15048.909000       0.935870
    15060.241000       0.909440
    15071.590100       0.894500
    15082.956300       0.887890
    15094.339600       0.898540
    15105.740200       0.915990
    15117.158000       0.943290
    15128.593000       0.965150
    15140.045400       0.975920
    15151.515200       0.970750
    15163.002300       0.953990
    15174.506800       0.934810
    15186.028900       0.918000
    15197.568400       0.910160
    15209.125500       0.917500
    15220.700200       0.935960
    15232.292500       0.964450
    15243.902400       0.984790
    15255.530100       1.000000
    15267.175600       0.995080
    15278.838800       0.981740
    15290.519900       0.956820
    15302.218800       0.939860
    15313.935700       0.934150
    15325.670500       0.945230
    15337.423300       0.963180
    15349.194200       0.978260
    15360.983100       0.971870
    15372.790200       0.940770
    15384.615400       0.901680
    15396.458800       0.869890
    15408.320500       0.871970
    15420.200500       0.899840
    15432.098800       0.868210
    15444.015400       0.665530
    15455.950500       0.423680
    15467.904100       0.205680
    15479.876200       0.092390
    15491.866800       0.050230
    15503.876000       0.026400
    15515.903800       0.015140
    15527.950300       0.010170
    15540.015500       0.006750
    15552.099500       0.004680
    15564.202300       0.003550
    15576.324000       0.002650
    15588.464500       0.002030
    15600.624000       0.001630
    15612.802500       0.001260
    15625.000000       0.000990
    15637.216600       0.000750
    15649.452300       0.000500
    15661.707100       0.000320
    15673.981200       0.000230
    15686.274500       0.000140
    15698.587100       0.000070
    15710.919100       0.000050
    15723.270400       0.000030
    15735.641200       0.000000
    15748.031500       0.000000
    15760.441300       0.000020
    15772.870700       0.000070
    15785.319700       0.000090
    15797.788300       0.000090
    15810.276700       0.000070
    15822.784800       0.000090
    15835.312700       0.000090
    15847.860500       0.000070
    15860.428200       0.000090
    15873.015900       0.000090
    15885.623500       0.000070
    15898.251200       0.000000
