3  , Calipso IIR Channel 3
Number of data points:
237
Wavenumber (cm-1)   Filter response
      751.879700       0.000949
      752.445400       0.000971
      753.012000       0.001006
      753.579500       0.001052
      754.147800       0.001105
      754.717000       0.001167
      755.287000       0.001233
      755.857900       0.001308
      756.429700       0.001392
      757.002300       0.001492
      757.575800       0.001616
      758.150100       0.001763
      758.725300       0.001929
      759.301400       0.002112
      759.878400       0.002305
      760.456300       0.002493
      761.035000       0.002676
      761.614600       0.002856
      762.195100       0.003032
      762.776500       0.003215
      763.358800       0.003420
      763.941900       0.003652
      764.526000       0.003914
      765.110900       0.004209
      765.696800       0.004545
      766.283500       0.004912
      766.871200       0.005311
      767.459700       0.005755
      768.049200       0.006245
      768.639500       0.006786
      769.230800       0.007388
      769.822900       0.008063
      770.416000       0.008811
      771.010000       0.009637
      771.604900       0.010560
      772.200800       0.011580
      772.797500       0.012720
      773.395200       0.013990
      773.993800       0.015430
      774.593300       0.017050
      775.193800       0.018880
      775.795200       0.020960
      776.397500       0.023340
      777.000800       0.026030
      777.605000       0.029080
      778.210100       0.032540
      778.816200       0.036470
      779.423200       0.040880
      780.031200       0.045870
      780.640100       0.051610
      781.250000       0.058130
      781.860800       0.065590
      782.472600       0.074190
      783.085400       0.084090
      783.699100       0.095390
      784.313700       0.108500
      784.929400       0.123300
      785.546000       0.140200
      786.163500       0.159300
      786.782100       0.181100
      787.401600       0.205700
      788.022100       0.233000
      788.643500       0.263100
      789.266000       0.296200
      789.889400       0.332100
      790.513800       0.370600
      791.139200       0.411200
      791.765600       0.453500
      792.393000       0.496200
      793.021400       0.538900
      793.650800       0.581200
      794.281200       0.621700
      794.912600       0.659300
      795.544900       0.693500
      796.178300       0.724200
      796.812700       0.750500
      797.448200       0.772500
      798.084600       0.790100
      798.722000       0.803800
      799.360500       0.813800
      800.000000       0.820600
      800.640500       0.824800
      801.282100       0.826700
      801.924600       0.827100
      802.568200       0.826300
      803.212900       0.824700
      803.858500       0.822600
      804.505200       0.820200
      805.153000       0.817900
      805.801800       0.815600
      806.451600       0.813900
      807.102500       0.812600
      807.754400       0.811900
      808.407400       0.811800
      809.061500       0.812500
      809.716600       0.813800
      810.372800       0.816000
      811.030000       0.818800
      811.688300       0.822400
      812.347700       0.826600
      813.008100       0.831700
      813.669700       0.837100
      814.332200       0.843100
      814.995900       0.849500
      815.660700       0.856400
      816.326500       0.863400
      816.993500       0.870900
      817.661500       0.878600
      818.330600       0.886200
      819.000800       0.894000
      819.672100       0.901800
      820.344500       0.909200
      821.018100       0.916300
      821.692700       0.923000
      822.368400       0.929100
      823.045300       0.934500
      823.723200       0.939200
      824.402300       0.942800
      825.082500       0.945400
      825.763800       0.947300
      826.446300       0.948400
      827.129900       0.948200
      827.814600       0.948200
      828.500400       0.947800
      829.187400       0.945900
      829.875500       0.944300
      830.564800       0.941500
      831.255200       0.939400
      831.946800       0.936800
      832.639500       0.933200
      833.333300       0.930700
      834.028400       0.927300
      834.724500       0.925100
      835.421900       0.923300
      836.120400       0.921000
      836.820100       0.920200
      837.520900       0.920000
      838.223000       0.920400
      838.926200       0.920500
      839.630600       0.922100
      840.336100       0.924200
      841.042900       0.927000
      841.750800       0.930400
      842.460000       0.934300
      843.170300       0.938900
      843.881900       0.943800
      844.594600       0.950000
      845.308500       0.955500
      846.023700       0.961300
      846.740100       0.967900
      847.457600       0.973600
      848.176400       0.980200
      848.896400       0.985200
      849.617700       0.990800
      850.340100       0.995400
      851.063800       0.998000
      851.788800       1.000000
      852.514900       0.999800
      853.242300       0.996800
      853.971000       0.990900
      854.700900       0.981200
      855.432000       0.966300
      856.164400       0.947200
      856.898000       0.922800
      857.632900       0.892700
      858.369100       0.856900
      859.106500       0.815100
      859.845200       0.769000
      860.585200       0.718900
      861.326400       0.665500
      862.069000       0.611300
      862.812800       0.555900
      863.557900       0.502000
      864.304200       0.449700
      865.051900       0.400200
      865.800900       0.354300
      866.551100       0.312100
      867.302700       0.273800
      868.055600       0.239500
      868.809700       0.209000
      869.565200       0.182200
      870.322000       0.158700
      871.080100       0.138300
      871.839600       0.120700
      872.600300       0.105300
      873.362400       0.092050
      874.125900       0.080660
      874.890600       0.070540
      875.656700       0.061980
      876.424200       0.054490
      877.193000       0.048040
      877.963100       0.042530
      878.734600       0.037740
      879.507500       0.033630
      880.281700       0.030080
      881.057300       0.026870
      881.834200       0.024040
      882.612500       0.021520
      883.392200       0.019290
      884.173300       0.017320
      884.955800       0.015600
      885.739600       0.014070
      886.524800       0.012710
      887.311400       0.011500
      888.099500       0.010390
      888.888900       0.009398
      889.679700       0.008518
      890.472000       0.007746
      891.265600       0.007071
      892.060700       0.006462
      892.857100       0.005943
      893.655000       0.005477
      894.454400       0.005080
      895.255100       0.004742
      896.057300       0.004438
      896.861000       0.004161
      897.666100       0.003898
      898.472600       0.003658
      899.280600       0.003454
      900.090000       0.003289
      900.900900       0.003156
      901.713300       0.003028
      902.527100       0.002882
      903.342400       0.002703
      904.159100       0.002496
      904.977400       0.002285
      905.797100       0.002086
      906.618300       0.001900
      907.441000       0.001722
      908.265200       0.001549
      909.090900       0.001386
      909.918100       0.001252
      910.746800       0.001151
      911.577000       0.001077
      912.408800       0.001010
      913.242000       0.000932
      914.076800       0.000000
