 1    ,gms_05_imager_01.flt
Number of data points:
65
Wavenumber (cm-1)   Filter response
      856.531000       0.000000
      858.663900       0.004000
      860.807400       0.019000
      862.887200       0.051000
      864.977100       0.097000
      867.152300       0.161000
      869.262900       0.257000
      871.383800       0.360000
      873.515000       0.448000
      875.580100       0.515000
      877.731900       0.581000
      879.817000       0.589000
      881.989800       0.612000
      884.095100       0.601000
      886.210600       0.641000
      888.336100       0.603000
      890.472000       0.624000
      892.538400       0.605000
      894.694500       0.625000
      896.780600       0.666000
      898.957200       0.689000
      901.063300       0.760000
      903.179200       0.826000
      905.305100       0.841000
      907.441000       0.908000
      909.504300       0.970000
      911.660100       0.982000
      913.742700       1.000000
      915.918700       0.945000
      918.020700       0.894000
      920.132500       0.843000
      922.254000       0.784000
      924.385300       0.716000
      926.440600       0.692000
      928.591300       0.672000
      930.752000       0.666000
      932.835800       0.670000
      934.928900       0.688000
      937.119300       0.717000
      939.231700       0.739000
      941.353700       0.772000
      943.396200       0.784000
      945.537100       0.768000
      947.687600       0.774000
      949.757800       0.778000
      951.927700       0.753000
      954.016400       0.765000
      956.114400       0.776000
      958.313400       0.766000
      960.430300       0.756000
      962.556600       0.745000
      964.599200       0.703000
      966.744000       0.650000
      968.898400       0.620000
      970.968100       0.576000
      973.141300       0.541000
      975.229200       0.470000
      977.326000       0.407000
      979.431900       0.306000
      981.546900       0.228000
      983.671100       0.153000
      985.804400       0.095000
      987.947000       0.044000
      990.099000       0.007000
      992.161900       0.000000
