3,    channel 3 SRF extracted from SRF_FY-4A_AGRI.zip (0.75.txt) (received April 2018)
Number of data points:
401
Wavenumber (cm-1)   Filter response
     9803.921600       0.007137
     9813.542700       0.007042
     9823.182700       0.006942
     9832.841700       0.006847
     9842.519700       0.006768
     9852.216700       0.006683
     9861.932900       0.006613
     9871.668300       0.006558
     9881.422900       0.006510
     9891.196800       0.006465
     9900.990100       0.006452
     9910.802800       0.006423
     9920.634900       0.006418
     9930.486600       0.006412
     9940.357900       0.006433
     9950.248800       0.006442
     9960.159400       0.006467
     9970.089700       0.006512
     9980.039900       0.006544
     9990.010000       0.006594
    10000.000000       0.006656
    10010.010000       0.006720
    10020.040100       0.006784
    10030.090300       0.006858
    10040.160600       0.006934
    10050.251300       0.007011
    10060.362200       0.007093
    10070.493500       0.007185
    10080.645200       0.007270
    10090.817400       0.007363
    10101.010100       0.007461
    10111.223500       0.007567
    10121.457500       0.007665
    10131.712300       0.007770
    10141.987800       0.007887
    10152.284300       0.007998
    10162.601600       0.008094
    10172.940000       0.008220
    10183.299400       0.008345
    10193.679900       0.008477
    10204.081600       0.008611
    10214.504600       0.008731
    10224.948900       0.008883
    10235.414500       0.009035
    10245.901600       0.009192
    10256.410300       0.009380
    10266.940500       0.009580
    10277.492300       0.009782
    10288.065800       0.010023
    10298.661200       0.010303
    10309.278400       0.010560
    10319.917400       0.010856
    10330.578500       0.011161
    10341.261600       0.011488
    10351.966900       0.011834
    10362.694300       0.012202
    10373.444000       0.012594
    10384.216000       0.012987
    10395.010400       0.013408
    10405.827300       0.013832
    10416.666700       0.014256
    10427.528700       0.014708
    10438.413400       0.015161
    10449.320800       0.015628
    10460.251000       0.016105
    10471.204200       0.016567
    10482.180300       0.017035
    10493.179400       0.017533
    10504.201700       0.018002
    10515.247100       0.018485
    10526.315800       0.018939
    10537.407800       0.019405
    10548.523200       0.019885
    10559.662100       0.020354
    10570.824500       0.020802
    10582.010600       0.021291
    10593.220300       0.021763
    10604.453900       0.022247
    10615.711300       0.022756
    10626.992600       0.023229
    10638.297900       0.023740
    10649.627300       0.024262
    10660.980800       0.024782
    10672.358600       0.025346
    10683.760700       0.025928
    10695.187200       0.026510
    10706.638100       0.027146
    10718.113600       0.027779
    10729.613700       0.028468
    10741.138600       0.029175
    10752.688200       0.029954
    10764.262600       0.030814
    10775.862100       0.031813
    10787.486500       0.032958
    10799.136100       0.034333
    10810.810800       0.035926
    10822.510800       0.037795
    10834.236200       0.066872
    10845.987000       0.091804
    10857.763300       0.119615
    10869.565200       0.149673
    10881.392800       0.181348
    10893.246200       0.214003
    10905.125400       0.246958
    10917.030600       0.279497
    10928.961700       0.310869
    10940.919000       0.340447
    10952.902500       0.368219
    10964.912300       0.394328
    10976.948400       0.418924
    10989.011000       0.442145
    11001.100100       0.464080
    11013.215900       0.484794
    11025.358300       0.504346
    11037.527600       0.522802
    11049.723800       0.540292
    11061.946900       0.556916
    11074.197100       0.572577
    11086.474500       0.587133
    11098.779100       0.600455
    11111.111100       0.612421
    11123.470500       0.622920
    11135.857500       0.631865
    11148.272000       0.639257
    11160.714300       0.645135
    11173.184400       0.649548
    11185.682300       0.652576
    11198.208300       0.654359
    11210.762300       0.655049
    11223.344600       0.654790
    11235.955100       0.653748
    11248.593900       0.652171
    11261.261300       0.650327
    11273.957200       0.648481
    11286.681700       0.646880
    11299.435000       0.645702
    11312.217200       0.645108
    11325.028300       0.645272
    11337.868500       0.646363
    11350.737800       0.648527
    11363.636400       0.651909
    11376.564300       0.656653
    11389.521600       0.662895
    11402.508600       0.670716
    11415.525100       0.680184
    11428.571400       0.691369
    11441.647600       0.704273
    11454.753700       0.718604
    11467.889900       0.733992
    11481.056300       0.750054
    11494.252900       0.766377
    11507.479900       0.782456
    11520.737300       0.797745
    11534.025400       0.811685
    11547.344100       0.823755
    11560.693600       0.833645
    11574.074100       0.841195
    11587.485500       0.846598
    11600.928100       0.850070
    11614.401900       0.851544
    11627.907000       0.850885
    11641.443500       0.847964
    11655.011700       0.842975
    11668.611400       0.837379
    11682.243000       0.832938
    11695.906400       0.831388
    11709.601900       0.833924
    11723.329400       0.839678
    11737.089200       0.847284
    11750.881300       0.855396
    11764.705900       0.862813
    11778.563000       0.868840
    11792.452800       0.872915
    11806.375400       0.874489
    11820.331000       0.873304
    11834.319500       0.870228
    11848.341200       0.866402
    11862.396200       0.863002
    11876.484600       0.860962
    11890.606400       0.860283
    11904.761900       0.860739
    11918.951100       0.862113
    11933.174200       0.864224
    11947.431300       0.867011
    11961.722500       0.870447
    11976.047900       0.874504
    11990.407700       0.879157
    12004.801900       0.884386
    12019.230800       0.890168
    12033.694300       0.896478
    12048.192800       0.903261
    12062.726200       0.910339
    12077.294700       0.917501
    12091.898400       0.924530
    12106.537500       0.931239
    12121.212100       0.937584
    12135.922300       0.943562
    12150.668300       0.949188
    12165.450100       0.954488
    12180.268000       0.959496
    12195.122000       0.964253
    12210.012200       0.968803
    12224.938900       0.973193
    12239.902100       0.977465
    12254.902000       0.981663
    12269.938700       0.985835
    12285.012300       0.989964
    12300.123000       0.993782
    12315.270900       0.996950
    12330.456200       0.999126
    12345.679000       1.000000
    12360.939400       0.999380
    12376.237600       0.997111
    12391.573700       0.993039
    12406.947900       0.987094
    12422.360200       0.979511
    12437.810900       0.970683
    12453.300100       0.961329
    12468.827900       0.952100
    12484.394500       0.943112
    12500.000000       0.934357
    12515.644600       0.925841
    12531.328300       0.917692
    12547.051400       0.910472
    12562.814100       0.904849
    12578.616400       0.901483
    12594.458400       0.900828
    12610.340500       0.902511
    12626.262600       0.905960
    12642.225000       0.910600
    12658.227800       0.915893
    12674.271200       0.921452
    12690.355300       0.926923
    12706.480300       0.931943
    12722.646300       0.936162
    12738.853500       0.939279
    12755.102000       0.941035
    12771.392100       0.941268
    12787.723800       0.939844
    12804.097300       0.936626
    12820.512800       0.931481
    12836.970500       0.924283
    12853.470400       0.914973
    12870.012900       0.903724
    12886.597900       0.890766
    12903.225800       0.876334
    12919.896600       0.860634
    12936.610600       0.843794
    12953.367900       0.825912
    12970.168600       0.807081
    12987.013000       0.787417
    13003.901200       0.767130
    13020.833300       0.746438
    13037.809600       0.725532
    13054.830300       0.704479
    13071.895400       0.682958
    13089.005200       0.660610
    13106.159900       0.637207
    13123.359600       0.612639
    13140.604500       0.587023
    13157.894700       0.560534
    13175.230600       0.533354
    13192.612100       0.505708
    13210.039600       0.477953
    13227.513200       0.450445
    13245.033100       0.423503
    13262.599500       0.397352
    13280.212500       0.371994
    13297.872300       0.347396
    13315.579200       0.323548
    13333.333300       0.300493
    13351.134800       0.278409
    13368.984000       0.257474
    13386.880900       0.237834
    13404.825700       0.219581
    13422.818800       0.202699
    13440.860200       0.187147
    13458.950200       0.172808
    13477.088900       0.159566
    13495.276700       0.147340
    13513.513500       0.136057
    13531.799700       0.125652
    13550.135500       0.116050
    13568.521000       0.107150
    13586.956500       0.098859
    13605.442200       0.091096
    13623.978200       0.083809
    13642.564800       0.077024
    13661.202200       0.070769
    13679.890600       0.065057
    13698.630100       0.059883
    13717.421100       0.055211
    13736.263700       0.051001
    13755.158200       0.047212
    13774.104700       0.043815
    13793.103400       0.040802
    13812.154700       0.038168
    13831.258600       0.035898
    13850.415500       0.033972
    13869.625500       0.032347
    13888.888900       0.030980
    13908.205800       0.029830
    13927.576600       0.028858
    13947.001400       0.028024
    13966.480400       0.027291
    13986.014000       0.026622
    14005.602200       0.025985
    14025.245400       0.025373
    14044.943800       0.024784
    14064.697600       0.024216
    14084.507000       0.023665
    14104.372400       0.023130
    14124.293800       0.022609
    14144.271600       0.022097
    14164.305900       0.021594
    14184.397200       0.021100
    14204.545500       0.020613
    14224.751100       0.020134
    14245.014200       0.019664
    14265.335200       0.019204
    14285.714300       0.018759
    14306.151600       0.018331
    14326.647600       0.017920
    14347.202300       0.017519
    14367.816100       0.017117
    14388.489200       0.016706
    14409.221900       0.016279
    14430.014400       0.015840
    14450.867100       0.015394
    14471.780000       0.014943
    14492.753600       0.014492
    14513.788100       0.014043
    14534.883700       0.013600
    14556.040800       0.013164
    14577.259500       0.012738
    14598.540100       0.012327
    14619.883000       0.011935
    14641.288400       0.011567
    14662.756600       0.011225
    14684.287800       0.010909
    14705.882400       0.010616
    14727.540500       0.010344
    14749.262500       0.010092
    14771.048700       0.009860
    14792.899400       0.009648
    14814.814800       0.009455
    14836.795300       0.009282
    14858.841000       0.009127
    14880.952400       0.008987
    14903.129700       0.008864
    14925.373100       0.008750
    14947.683100       0.008653
    14970.059900       0.008576
    14992.503700       0.008519
    15015.015000       0.008489
    15037.594000       0.008484
    15060.241000       0.008504
    15082.956300       0.008549
    15105.740200       0.008617
    15128.593000       0.008704
    15151.515200       0.008805
    15174.506800       0.008915
    15197.568400       0.009030
    15220.700200       0.009144
    15243.902400       0.009250
    15267.175600       0.009343
    15290.519900       0.009418
    15313.935700       0.009474
    15337.423300       0.009508
    15360.983100       0.009520
    15384.615400       0.009510
    15408.320500       0.009487
    15432.098800       0.009461
    15455.950500       0.009441
    15479.876200       0.009437
    15503.876000       0.009452
    15527.950300       0.009489
    15552.099500       0.009551
    15576.324000       0.009639
    15600.624000       0.009749
    15625.000000       0.009876
    15649.452300       0.010016
    15673.981200       0.010162
    15698.587100       0.010309
    15723.270400       0.010450
    15748.031500       0.010577
    15772.870700       0.010685
    15797.788300       0.010771
    15822.784800       0.010833
    15847.860500       0.010872
    15873.015900       0.010885
    15898.251200       0.010876
    15923.566900       0.010846
    15948.963300       0.010799
    15974.440900       0.010737
    16000.000000       0.010665
    16025.641000       0.010587
    16051.364400       0.010505
    16077.170400       0.010424
    16103.059600       0.010343
    16129.032300       0.010263
