60,   60, MVIRI VIS channel from srf_MET7_2005033_2005034_1801-Release_S10EE_10.dat
Number of data points:
793
Wavenumber (cm-1)   Filter response
     8442.380800       0.000000
     8449.514200       0.000000
     8456.659600       0.000004
     8463.817200       0.000055
     8470.986900       0.000162
     8478.168700       0.000324
     8485.362700       0.000539
     8492.569000       0.000806
     8499.787500       0.001123
     8507.018300       0.001489
     8514.261400       0.001902
     8521.516800       0.002361
     8528.784600       0.002864
     8536.064900       0.003412
     8543.357500       0.004001
     8550.662700       0.004631
     8557.980300       0.005302
     8565.310500       0.006011
     8572.653200       0.006758
     8580.008600       0.007542
     8587.376600       0.008362
     8594.757200       0.009217
     8602.150500       0.010106
     8609.556600       0.011028
     8616.975400       0.011982
     8624.407100       0.012969
     8631.851500       0.013986
     8639.308900       0.015033
     8646.779100       0.016110
     8654.262200       0.017216
     8661.758300       0.018350
     8669.267400       0.019512
     8676.789600       0.020702
     8684.324800       0.021917
     8691.873100       0.023159
     8699.434500       0.024427
     8707.009100       0.025720
     8714.596900       0.027038
     8722.198000       0.028380
     8729.812300       0.029746
     8737.439900       0.031136
     8745.080900       0.032549
     8752.735200       0.033986
     8760.403000       0.035445
     8768.084200       0.036927
     8775.778900       0.038430
     8783.487000       0.039956
     8791.208800       0.041504
     8798.944100       0.043074
     8806.693100       0.044665
     8814.455700       0.046277
     8822.232000       0.047910
     8830.022100       0.049564
     8837.825900       0.051240
     8845.643500       0.052936
     8853.475000       0.054652
     8861.320300       0.056390
     8869.179600       0.058148
     8877.052800       0.059926
     8884.940000       0.061725
     8892.841300       0.063545
     8900.756600       0.065385
     8908.686000       0.067245
     8916.629500       0.069126
     8924.587200       0.071027
     8932.559200       0.072948
     8940.545400       0.074890
     8948.545900       0.076853
     8956.560700       0.078835
     8964.589900       0.080839
     8972.633500       0.082863
     8980.691500       0.084907
     8988.764000       0.086973
     8996.851100       0.089059
     9004.952700       0.091166
     9013.068900       0.093294
     9021.199800       0.095442
     9029.345400       0.097612
     9037.505600       0.099803
     9045.680700       0.102016
     9053.870500       0.104249
     9062.075200       0.106504
     9070.294800       0.108780
     9078.529300       0.111078
     9086.778700       0.113398
     9095.043200       0.115739
     9103.322700       0.118102
     9111.617300       0.120487
     9119.927000       0.122894
     9128.251900       0.125324
     9136.592100       0.127775
     9144.947400       0.130249
     9153.318100       0.132745
     9161.704100       0.135263
     9170.105500       0.137805
     9178.522300       0.140369
     9186.954500       0.142955
     9195.402300       0.145564
     9203.865600       0.148196
     9212.344500       0.150851
     9220.839100       0.153530
     9229.349300       0.156231
     9237.875300       0.158955
     9246.417000       0.161703
     9254.974500       0.164474
     9263.547900       0.167268
     9272.137200       0.170085
     9280.742500       0.172926
     9289.363700       0.175791
     9298.000900       0.178679
     9306.654300       0.181590
     9315.323700       0.184525
     9324.009300       0.187484
     9332.711200       0.190467
     9341.429200       0.193472
     9350.163600       0.196502
     9358.914400       0.199555
     9367.681500       0.202632
     9376.465100       0.205733
     9385.265100       0.208856
     9394.081700       0.212004
     9402.914900       0.215175
     9411.764700       0.218370
     9420.631200       0.221589
     9429.514400       0.224830
     9438.414300       0.228096
     9447.331100       0.231384
     9456.264800       0.234696
     9465.215300       0.238031
     9474.182900       0.241389
     9483.167400       0.244771
     9492.169000       0.248175
     9501.187600       0.251603
     9510.223500       0.255053
     9519.276500       0.258526
     9528.346800       0.262021
     9537.434400       0.265540
     9546.539400       0.269080
     9555.661700       0.272643
     9564.801500       0.276227
     9573.958800       0.279834
     9583.133700       0.283463
     9592.326100       0.287113
     9601.536200       0.290785
     9610.764100       0.294478
     9620.009600       0.298193
     9629.273000       0.301928
     9638.554200       0.305684
     9647.853400       0.309462
     9657.170400       0.313259
     9666.505600       0.317076
     9675.858700       0.320914
     9685.230000       0.324771
     9694.619500       0.328648
     9704.027200       0.332545
     9713.453100       0.336460
     9722.897400       0.340395
     9732.360100       0.344347
     9741.841200       0.348319
     9751.340800       0.352308
     9760.859000       0.356316
     9770.395700       0.360341
     9779.951100       0.364383
     9789.525200       0.368442
     9799.118100       0.372519
     9808.729800       0.376611
     9818.360300       0.380720
     9828.009800       0.384844
     9837.678300       0.388984
     9847.365800       0.393140
     9857.072400       0.397310
     9866.798200       0.401495
     9876.543200       0.405693
     9886.307500       0.409907
     9896.091000       0.414133
     9905.894000       0.418373
     9915.716400       0.422626
     9925.558300       0.426891
     9935.419800       0.431168
     9945.300800       0.435458
     9955.201600       0.439758
     9965.122100       0.444070
     9975.062300       0.448392
     9985.022500       0.452725
     9995.002500       0.457067
    10005.002500       0.461420
    10015.022500       0.465781
    10025.062700       0.470151
    10035.122900       0.474529
    10045.203400       0.478915
    10055.304200       0.483309
    10065.425300       0.487710
    10075.566800       0.492118
    10085.728700       0.496532
    10095.911200       0.500952
    10106.114200       0.505377
    10116.337900       0.509807
    10126.582300       0.514242
    10136.847400       0.518681
    10147.133400       0.523124
    10157.440300       0.527570
    10167.768200       0.532019
    10178.117000       0.536470
    10188.487000       0.540923
    10198.878100       0.545378
    10209.290500       0.549834
    10219.724100       0.554290
    10230.179000       0.558746
    10240.655400       0.563203
    10251.153300       0.567658
    10261.672700       0.572112
    10272.213700       0.576565
    10282.776300       0.581015
    10293.360800       0.585463
    10303.967000       0.589908
    10314.595200       0.594349
    10325.245200       0.598787
    10335.917300       0.603220
    10346.611500       0.607648
    10357.327800       0.612070
    10368.066400       0.616487
    10378.827200       0.620897
    10389.610400       0.625301
    10400.416000       0.629697
    10411.244100       0.634086
    10422.094800       0.638466
    10432.968200       0.642838
    10443.864200       0.647201
    10454.783100       0.651554
    10465.724800       0.655897
    10476.689400       0.660229
    10487.677000       0.664551
    10498.687700       0.668861
    10509.721500       0.673159
    10520.778500       0.677445
    10531.858900       0.681718
    10542.962600       0.685978
    10554.089700       0.690224
    10565.240400       0.694456
    10576.414600       0.698673
    10587.612500       0.702875
    10598.834100       0.707062
    10610.079600       0.711233
    10621.348900       0.715387
    10632.642200       0.719524
    10643.959600       0.723644
    10655.301000       0.727747
    10666.666700       0.731830
    10678.056600       0.735896
    10689.470900       0.739942
    10700.909600       0.743969
    10712.372800       0.747976
    10723.860600       0.751962
    10735.373100       0.755928
    10746.910300       0.759873
    10758.472300       0.763796
    10770.059200       0.767697
    10781.671200       0.771575
    10793.308100       0.775431
    10804.970300       0.779264
    10816.657700       0.783073
    10828.370300       0.786857
    10840.108400       0.790618
    10851.871900       0.794353
    10863.661100       0.798064
    10875.475800       0.801749
    10887.316300       0.805408
    10899.182600       0.809041
    10911.074700       0.812647
    10922.992900       0.816226
    10934.937100       0.819778
    10946.907500       0.823301
    10958.904100       0.826797
    10970.927000       0.830265
    10982.976400       0.833704
    10995.052200       0.837113
    11007.154700       0.840493
    11019.283700       0.843844
    11031.439600       0.847164
    11043.622300       0.850454
    11055.832000       0.853713
    11068.068600       0.856942
    11080.332400       0.860139
    11092.623400       0.863304
    11104.941700       0.866438
    11117.287400       0.869539
    11129.660500       0.872608
    11142.061300       0.875644
    11154.489700       0.878647
    11166.945800       0.881618
    11179.429800       0.884554
    11191.941800       0.887457
    11204.481800       0.890326
    11217.049900       0.893161
    11229.646300       0.895961
    11242.270900       0.898726
    11254.924000       0.901457
    11267.605600       0.904153
    11280.315800       0.906813
    11293.054800       0.909438
    11305.822500       0.912027
    11318.619100       0.914580
    11331.444800       0.917097
    11344.299500       0.919578
    11357.183400       0.922022
    11370.096600       0.924430
    11383.039300       0.926801
    11396.011400       0.929135
    11409.013100       0.931433
    11422.044500       0.933693
    11435.105800       0.935915
    11448.196900       0.938101
    11461.318100       0.940248
    11474.469300       0.942358
    11487.650800       0.944431
    11500.862600       0.946465
    11514.104800       0.948462
    11527.377500       0.950420
    11540.680900       0.952341
    11554.015000       0.954223
    11567.380000       0.956067
    11580.775900       0.957872
    11594.202900       0.959639
    11607.661100       0.961368
    11621.150500       0.963059
    11634.671300       0.964711
    11648.223600       0.966324
    11661.807600       0.967899
    11675.423200       0.969435
    11689.070700       0.970933
    11702.750100       0.972392
    11716.461600       0.973813
    11730.205300       0.975195
    11743.981200       0.976539
    11757.789500       0.977844
    11771.630400       0.979111
    11785.503800       0.980339
    11799.410000       0.981529
    11813.349100       0.982681
    11827.321100       0.983795
    11841.326200       0.984870
    11855.364600       0.985907
    11869.436200       0.986907
    11883.541300       0.987868
    11897.680000       0.988792
    11911.852300       0.989678
    11926.058400       0.990526
    11940.298500       0.991337
    11954.572600       0.992110
    11968.880900       0.992846
    11983.223500       0.993545
    11997.600500       0.994207
    12012.012000       0.994833
    12026.458200       0.995421
    12040.939200       0.995973
    12055.455100       0.996489
    12070.006000       0.996969
    12084.592100       0.997412
    12099.213600       0.997820
    12113.870400       0.998192
    12128.562800       0.998529
    12143.290800       0.998830
    12158.054700       0.999097
    12172.854500       0.999328
    12187.690400       0.999525
    12202.562500       0.999688
    12217.471000       0.999817
    12232.415900       0.999911
    12247.397400       0.999972
    12262.415700       1.000000
    12277.470800       0.999994
    12292.563000       0.999956
    12307.692300       0.999885
    12322.858900       0.999782
    12338.062900       0.999646
    12353.304500       0.999479
    12368.583800       0.999280
    12383.900900       0.999050
    12399.256000       0.998789
    12414.649300       0.998497
    12430.080800       0.998175
    12445.550700       0.997824
    12461.059200       0.997442
    12476.606400       0.997031
    12492.192400       0.996591
    12507.817400       0.996122
    12523.481500       0.995625
    12539.185000       0.995100
    12554.927800       0.994547
    12570.710200       0.993967
    12586.532400       0.993360
    12602.394500       0.992726
    12618.296500       0.992065
    12634.238800       0.991379
    12650.221400       0.990668
    12666.244500       0.989931
    12682.308200       0.989169
    12698.412700       0.988383
    12714.558200       0.987573
    12730.744700       0.986739
    12746.972600       0.985882
    12763.241900       0.985002
    12779.552700       0.984100
    12795.905300       0.983176
    12812.299800       0.982229
    12828.736400       0.981262
    12845.215200       0.980274
    12861.736300       0.979265
    12878.300100       0.978236
    12894.906500       0.977188
    12911.555800       0.976120
    12928.248200       0.975034
    12944.983800       0.973929
    12961.762800       0.972807
    12978.585300       0.971667
    12995.451600       0.970510
    13012.361700       0.969336
    13029.316000       0.968146
    13046.314400       0.966940
    13063.357300       0.965719
    13080.444700       0.964483
    13097.576900       0.963233
    13114.754100       0.961968
    13131.976400       0.960691
    13149.243900       0.959400
    13166.556900       0.958096
    13183.915600       0.956780
    13201.320100       0.955452
    13218.770700       0.954113
    13236.267400       0.952764
    13253.810500       0.951403
    13271.400100       0.950033
    13289.036500       0.948654
    13306.719900       0.947265
    13324.450400       0.945867
    13342.228200       0.944462
    13360.053400       0.943049
    13377.926400       0.941628
    13395.847300       0.940201
    13413.816200       0.938767
    13431.833400       0.937328
    13449.899100       0.935883
    13468.013500       0.934433
    13486.176700       0.932978
    13504.388900       0.931520
    13522.650400       0.930058
    13540.961400       0.928592
    13559.322000       0.927124
    13577.732500       0.925653
    13596.193100       0.924181
    13614.703900       0.922707
    13633.265200       0.921232
    13651.877100       0.919757
    13670.540000       0.918281
    13689.253900       0.916806
    13708.019200       0.915331
    13726.836000       0.913858
    13745.704500       0.912386
    13764.624900       0.910916
    13783.597500       0.909449
    13802.622500       0.907984
    13821.700100       0.906523
    13840.830400       0.905065
    13860.013900       0.903612
    13879.250500       0.902163
    13898.540700       0.900719
    13917.884500       0.899280
    13937.282200       0.897847
    13956.734100       0.896420
    13976.240400       0.894999
    13995.801300       0.893585
    14015.417000       0.892179
    14035.087700       0.890780
    14054.813800       0.889389
    14074.595400       0.888007
    14094.432700       0.886633
    14114.326000       0.885268
    14134.275600       0.883913
    14154.281700       0.882567
    14174.344400       0.881232
    14194.464200       0.879907
    14214.641100       0.878593
    14234.875400       0.877290
    14255.167500       0.875999
    14275.517500       0.874720
    14295.925700       0.873452
    14316.392300       0.872197
    14336.917600       0.870955
    14357.501800       0.869726
    14378.145200       0.868510
    14398.848100       0.867308
    14419.610700       0.866120
    14440.433200       0.864945
    14461.316000       0.863786
    14482.259200       0.862641
    14503.263200       0.861511
    14524.328200       0.860396
    14545.454500       0.859297
    14566.642400       0.858214
    14587.892000       0.857146
    14609.203800       0.856095
    14630.577900       0.855060
    14652.014700       0.854042
    14673.514300       0.853040
    14695.077100       0.852056
    14716.703500       0.851089
    14738.393500       0.850139
    14760.147600       0.849207
    14781.966000       0.848292
    14803.849000       0.847396
    14825.796900       0.846517
    14847.809900       0.845657
    14869.888500       0.844815
    14892.032800       0.843991
    14914.243100       0.843187
    14936.519800       0.842401
    14958.863100       0.841633
    14981.273400       0.840885
    15003.750900       0.840156
    15026.296000       0.839445
    15048.909000       0.838754
    15071.590100       0.838083
    15094.339600       0.837430
    15117.158000       0.836797
    15140.045400       0.836183
    15163.002300       0.835589
    15186.028900       0.835014
    15209.125500       0.834459
    15232.292500       0.833923
    15255.530100       0.833407
    15278.838800       0.832910
    15302.218800       0.832433
    15325.670500       0.831975
    15349.194200       0.831536
    15372.790200       0.831117
    15396.458800       0.830717
    15420.200500       0.830336
    15444.015400       0.829975
    15467.904100       0.829632
    15491.866800       0.829309
    15515.903800       0.829004
    15540.015500       0.828718
    15564.202300       0.828451
    15588.464500       0.828202
    15612.802500       0.827972
    15637.216600       0.827760
    15661.707100       0.827566
    15686.274500       0.827390
    15710.919100       0.827231
    15735.641200       0.827090
    15760.441300       0.826967
    15785.319700       0.826861
    15810.276700       0.826771
    15835.312700       0.826699
    15860.428200       0.826642
    15885.623500       0.826602
    15910.899000       0.826578
    15936.255000       0.826570
    15961.691900       0.826577
    15987.210200       0.826600
    16012.810200       0.826637
    16038.492400       0.826689
    16064.257000       0.826755
    16090.104600       0.826835
    16116.035500       0.826929
    16142.050000       0.827036
    16168.148700       0.827155
    16194.332000       0.827288
    16220.600200       0.827432
    16246.953700       0.827589
    16273.393000       0.827757
    16299.918500       0.827936
    16326.530600       0.828125
    16353.229800       0.828325
    16380.016400       0.828535
    16406.890900       0.828754
    16433.853700       0.828982
    16460.905300       0.829219
    16488.046200       0.829463
    16515.276600       0.829715
    16542.597200       0.829974
    16570.008300       0.830240
    16597.510400       0.830512
    16625.103900       0.830789
    16652.789300       0.831072
    16680.567100       0.831359
    16708.437800       0.831650
    16736.401700       0.831945
    16764.459300       0.832242
    16792.611300       0.832542
    16820.857900       0.832844
    16849.199700       0.833147
    16877.637100       0.833451
    16906.170800       0.833755
    16934.801000       0.834058
    16963.528400       0.834360
    16992.353400       0.834661
    17021.276600       0.834959
    17050.298400       0.835254
    17079.419300       0.835545
    17108.639900       0.835833
    17137.960600       0.836115
    17167.382000       0.836392
    17196.904600       0.836663
    17226.528900       0.836926
    17256.255400       0.837182
    17286.084700       0.837430
    17316.017300       0.837669
    17346.053800       0.837899
    17376.194600       0.838118
    17406.440400       0.838325
    17436.791600       0.838522
    17467.248900       0.838705
    17497.812800       0.838876
    17528.483800       0.839032
    17559.262500       0.839174
    17590.149500       0.839301
    17621.145400       0.839411
    17652.250700       0.839504
    17683.466000       0.839580
    17714.791900       0.839637
    17746.228900       0.839675
    17777.777800       0.839693
    17809.439000       0.839690
    17841.213200       0.839666
    17873.101000       0.839619
    17905.103000       0.839549
    17937.219700       0.839456
    17969.451900       0.839337
    18001.800200       0.839193
    18034.265100       0.839023
    18066.847300       0.838826
    18099.547500       0.838601
    18132.366300       0.838347
    18165.304300       0.838064
    18198.362100       0.837751
    18231.540600       0.837406
    18264.840200       0.837029
    18298.261700       0.836620
    18331.805700       0.836177
    18365.472900       0.835700
    18399.264000       0.835188
    18433.179700       0.834639
    18467.220700       0.834054
    18501.387600       0.833431
    18535.681200       0.832770
    18570.102100       0.832070
    18604.651200       0.831329
    18639.329000       0.830548
    18674.136300       0.829725
    18709.073900       0.828860
    18744.142500       0.827951
    18779.342700       0.826999
    18814.675400       0.826001
    18850.141400       0.824958
    18885.741300       0.823869
    18921.475900       0.822732
    18957.346000       0.821547
    18993.352300       0.820314
    19029.495700       0.819031
    19065.776900       0.817698
    19102.196800       0.816314
    19138.756000       0.814878
    19175.455400       0.813389
    19212.295900       0.811848
    19249.278200       0.810252
    19286.403100       0.808601
    19323.671500       0.806895
    19361.084200       0.805133
    19398.642100       0.803314
    19436.346000       0.801438
    19474.196700       0.799503
    19512.195100       0.797509
    19550.342100       0.795456
    19588.638600       0.793342
    19627.085400       0.791168
    19665.683400       0.788932
    19704.433500       0.786634
    19743.336600       0.784273
    19782.393700       0.781849
    19821.605600       0.779360
    19860.973200       0.776808
    19900.497500       0.774190
    19940.179500       0.771507
    19980.020000       0.768757
    20020.020000       0.765941
    20060.180500       0.763058
    20100.502500       0.760107
    20140.986900       0.757087
    20181.634700       0.754000
    20222.446900       0.750843
    20263.424500       0.747617
    20304.568500       0.744320
    20345.880000       0.740954
    20387.359800       0.737517
    20429.009200       0.734009
    20470.829100       0.730430
    20512.820500       0.726779
    20554.984600       0.723056
    20597.322300       0.719261
    20639.834900       0.715393
    20682.523300       0.711453
    20725.388600       0.707440
    20768.432000       0.703354
    20811.654500       0.699195
    20855.057400       0.694962
    20898.641600       0.690656
    20942.408400       0.686276
    20986.358900       0.681823
    21030.494200       0.677296
    21074.815600       0.672696
    21119.324200       0.668022
    21164.021200       0.663274
    21208.907700       0.658452
    21253.985100       0.653558
    21299.254500       0.648590
    21344.717200       0.643548
    21390.374300       0.638434
    21436.227200       0.633247
    21482.277100       0.627988
    21528.525300       0.622656
    21574.973000       0.617252
    21621.621600       0.611777
    21668.472400       0.606231
    21715.526600       0.600614
    21762.785600       0.594927
    21810.250800       0.589169
    21857.923500       0.583343
    21905.805000       0.577448
    21953.896800       0.571484
    22002.200200       0.565453
    22050.716600       0.559355
    22099.447500       0.553191
    22148.394200       0.546962
    22197.558300       0.540668
    22246.941000       0.534310
    22296.544000       0.527889
    22346.368700       0.521406
    22396.416600       0.514863
    22446.689100       0.508258
    22497.187900       0.501595
    22547.914300       0.494874
    22598.870100       0.488096
    22650.056600       0.481263
    22701.475600       0.474375
    22753.128600       0.467434
    22805.017100       0.460441
    22857.142900       0.453397
    22909.507400       0.446305
    22962.112500       0.439164
    23014.959700       0.431978
    23068.050700       0.424747
    23121.387300       0.417473
    23174.971000       0.410158
    23228.803700       0.402803
    23282.887100       0.395411
    23337.222900       0.387982
    23391.812900       0.380520
    23446.658900       0.373025
    23501.762600       0.365500
    23557.126000       0.357947
    23612.750900       0.350369
    23668.639100       0.342766
    23724.792400       0.335142
    23781.212800       0.327499
    23837.902300       0.319838
    23894.862600       0.312164
    23952.095800       0.304477
    24009.603800       0.296781
    24067.388700       0.289077
    24125.452400       0.281370
    24183.796900       0.273662
    24242.424200       0.265954
    24301.336600       0.258251
    24360.535900       0.250555
    24420.024400       0.242869
    24479.804200       0.235196
    24539.877300       0.227540
    24600.246000       0.219904
    24660.912500       0.212290
    24721.878900       0.204702
    24783.147500       0.197145
    24844.720500       0.189620
    24906.600200       0.182132
    24968.789000       0.174685
    25031.289100       0.167282
    25094.102900       0.159927
    25157.232700       0.152624
    25220.681000       0.145376
    25284.450100       0.138189
    25348.542500       0.131065
    25412.960600       0.124010
    25477.707000       0.117028
