8, GOES 6.19um ABI FM3 SRF CWG processed March 10, 2016
Number of data points:
3727
Wavenumber (cm-1)   Filter response
     1436.500000       0.001001
     1436.600000       0.001034
     1436.700000       0.001064
     1436.800000       0.001101
     1436.900000       0.001160
     1437.000000       0.001202
     1437.100000       0.001219
     1437.200000       0.001227
     1437.300000       0.001231
     1437.400000       0.001233
     1437.500000       0.001230
     1437.600000       0.001225
     1437.700000       0.001219
     1437.800000       0.001213
     1437.900000       0.001211
     1438.000000       0.001210
     1438.100000       0.001213
     1438.200000       0.001222
     1438.300000       0.001233
     1438.400000       0.001250
     1438.500000       0.001271
     1438.600000       0.001294
     1438.700000       0.001320
     1438.800000       0.001347
     1438.900000       0.001374
     1439.000000       0.001401
     1439.100000       0.001424
     1439.200000       0.001445
     1439.300000       0.001461
     1439.400000       0.001475
     1439.500000       0.001484
     1439.600000       0.001490
     1439.700000       0.001492
     1439.800000       0.001492
     1439.900000       0.001492
     1440.000000       0.001491
     1440.100000       0.001490
     1440.200000       0.001492
     1440.300000       0.001494
     1440.400000       0.001500
     1440.500000       0.001508
     1440.600000       0.001519
     1440.700000       0.001532
     1440.800000       0.001547
     1440.900000       0.001562
     1441.000000       0.001578
     1441.100000       0.001594
     1441.200000       0.001607
     1441.300000       0.001618
     1441.400000       0.001625
     1441.500000       0.001630
     1441.600000       0.001631
     1441.700000       0.001628
     1441.800000       0.001624
     1441.900000       0.001616
     1442.000000       0.001607
     1442.100000       0.001596
     1442.200000       0.001587
     1442.300000       0.001579
     1442.400000       0.001574
     1442.500000       0.001572
     1442.600000       0.001572
     1442.700000       0.001577
     1442.800000       0.001585
     1442.900000       0.001597
     1443.000000       0.001611
     1443.100000       0.001627
     1443.200000       0.001644
     1443.300000       0.001660
     1443.400000       0.001675
     1443.500000       0.001688
     1443.600000       0.001698
     1443.700000       0.001701
     1443.800000       0.001703
     1443.900000       0.001701
     1444.000000       0.001693
     1444.100000       0.001683
     1444.200000       0.001669
     1444.300000       0.001653
     1444.400000       0.001636
     1444.500000       0.001620
     1444.600000       0.001605
     1444.700000       0.001594
     1444.800000       0.001584
     1444.900000       0.001581
     1445.000000       0.001581
     1445.100000       0.001582
     1445.200000       0.001589
     1445.300000       0.001600
     1445.400000       0.001612
     1445.500000       0.001625
     1445.600000       0.001638
     1445.700000       0.001650
     1445.800000       0.001658
     1445.900000       0.001663
     1446.000000       0.001662
     1446.100000       0.001659
     1446.200000       0.001653
     1446.300000       0.001639
     1446.400000       0.001623
     1446.500000       0.001603
     1446.600000       0.001581
     1446.700000       0.001559
     1446.800000       0.001538
     1446.900000       0.001518
     1447.000000       0.001501
     1447.100000       0.001488
     1447.200000       0.001480
     1447.300000       0.001476
     1447.400000       0.001475
     1447.500000       0.001480
     1447.600000       0.001488
     1447.700000       0.001500
     1447.800000       0.001513
     1447.900000       0.001527
     1448.000000       0.001541
     1448.100000       0.001554
     1448.200000       0.001564
     1448.300000       0.001572
     1448.400000       0.001577
     1448.500000       0.001578
     1448.600000       0.001576
     1448.700000       0.001573
     1448.800000       0.001565
     1448.900000       0.001557
     1449.000000       0.001548
     1449.100000       0.001540
     1449.200000       0.001532
     1449.300000       0.001527
     1449.400000       0.001524
     1449.500000       0.001523
     1449.600000       0.001524
     1449.700000       0.001528
     1449.800000       0.001533
     1449.900000       0.001539
     1450.000000       0.001545
     1450.100000       0.001550
     1450.200000       0.001550
     1450.300000       0.001549
     1450.400000       0.001546
     1450.500000       0.001536
     1450.600000       0.001523
     1450.700000       0.001505
     1450.800000       0.001483
     1450.900000       0.001457
     1451.000000       0.001429
     1451.100000       0.001399
     1451.200000       0.001370
     1451.300000       0.001343
     1451.400000       0.001318
     1451.500000       0.001298
     1451.600000       0.001283
     1451.700000       0.001273
     1451.800000       0.001268
     1451.900000       0.001270
     1452.000000       0.001275
     1452.100000       0.001285
     1452.200000       0.001299
     1452.300000       0.001315
     1452.400000       0.001331
     1452.500000       0.001345
     1452.600000       0.001358
     1452.700000       0.001367
     1452.800000       0.001373
     1452.900000       0.001373
     1453.000000       0.001369
     1453.100000       0.001362
     1453.200000       0.001349
     1453.300000       0.001333
     1453.400000       0.001314
     1453.500000       0.001295
     1453.600000       0.001276
     1453.700000       0.001259
     1453.800000       0.001245
     1453.900000       0.001234
     1454.000000       0.001228
     1454.100000       0.001226
     1454.200000       0.001228
     1454.300000       0.001236
     1454.400000       0.001245
     1454.500000       0.001260
     1454.600000       0.001275
     1454.700000       0.001291
     1454.800000       0.001306
     1454.900000       0.001320
     1455.000000       0.001330
     1455.100000       0.001339
     1455.200000       0.001342
     1455.300000       0.001342
     1455.400000       0.001342
     1455.500000       0.001337
     1455.600000       0.001329
     1455.700000       0.001322
     1455.800000       0.001316
     1455.900000       0.001313
     1456.000000       0.001312
     1456.100000       0.001315
     1456.200000       0.001324
     1456.300000       0.001336
     1456.400000       0.001356
     1456.500000       0.001379
     1456.600000       0.001407
     1456.700000       0.001439
     1456.800000       0.001473
     1456.900000       0.001506
     1457.000000       0.001539
     1457.100000       0.001568
     1457.200000       0.001593
     1457.300000       0.001612
     1457.400000       0.001625
     1457.500000       0.001633
     1457.600000       0.001631
     1457.700000       0.001627
     1457.800000       0.001617
     1457.900000       0.001600
     1458.000000       0.001581
     1458.100000       0.001560
     1458.200000       0.001541
     1458.300000       0.001521
     1458.400000       0.001507
     1458.500000       0.001494
     1458.600000       0.001490
     1458.700000       0.001490
     1458.800000       0.001490
     1458.900000       0.001498
     1459.000000       0.001512
     1459.100000       0.001528
     1459.200000       0.001547
     1459.300000       0.001567
     1459.400000       0.001587
     1459.500000       0.001605
     1459.600000       0.001621
     1459.700000       0.001633
     1459.800000       0.001643
     1459.900000       0.001648
     1460.000000       0.001650
     1460.100000       0.001651
     1460.200000       0.001648
     1460.300000       0.001645
     1460.400000       0.001643
     1460.500000       0.001641
     1460.600000       0.001643
     1460.700000       0.001648
     1460.800000       0.001656
     1460.900000       0.001670
     1461.000000       0.001687
     1461.100000       0.001709
     1461.200000       0.001734
     1461.300000       0.001762
     1461.400000       0.001790
     1461.500000       0.001819
     1461.600000       0.001846
     1461.700000       0.001871
     1461.800000       0.001889
     1461.900000       0.001905
     1462.000000       0.001911
     1462.100000       0.001910
     1462.200000       0.001909
     1462.300000       0.001901
     1462.400000       0.001885
     1462.500000       0.001867
     1462.600000       0.001846
     1462.700000       0.001823
     1462.800000       0.001801
     1462.900000       0.001781
     1463.000000       0.001763
     1463.100000       0.001751
     1463.200000       0.001741
     1463.300000       0.001738
     1463.400000       0.001740
     1463.500000       0.001742
     1463.600000       0.001750
     1463.700000       0.001762
     1463.800000       0.001774
     1463.900000       0.001788
     1464.000000       0.001801
     1464.100000       0.001814
     1464.200000       0.001824
     1464.300000       0.001833
     1464.400000       0.001839
     1464.500000       0.001843
     1464.600000       0.001846
     1464.700000       0.001849
     1464.800000       0.001852
     1464.900000       0.001856
     1465.000000       0.001863
     1465.100000       0.001873
     1465.200000       0.001887
     1465.300000       0.001907
     1465.400000       0.001932
     1465.500000       0.001962
     1465.600000       0.001998
     1465.700000       0.002038
     1465.800000       0.002081
     1465.900000       0.002124
     1466.000000       0.002169
     1466.100000       0.002213
     1466.200000       0.002254
     1466.300000       0.002292
     1466.400000       0.002325
     1466.500000       0.002352
     1466.600000       0.002373
     1466.700000       0.002387
     1466.800000       0.002394
     1466.900000       0.002397
     1467.000000       0.002395
     1467.100000       0.002390
     1467.200000       0.002384
     1467.300000       0.002376
     1467.400000       0.002369
     1467.500000       0.002363
     1467.600000       0.002362
     1467.700000       0.002362
     1467.800000       0.002363
     1467.900000       0.002370
     1468.000000       0.002380
     1468.100000       0.002391
     1468.200000       0.002404
     1468.300000       0.002416
     1468.400000       0.002427
     1468.500000       0.002435
     1468.600000       0.002441
     1468.700000       0.002441
     1468.800000       0.002439
     1468.900000       0.002435
     1469.000000       0.002425
     1469.100000       0.002413
     1469.200000       0.002399
     1469.300000       0.002386
     1469.400000       0.002372
     1469.500000       0.002365
     1469.600000       0.002364
     1469.700000       0.002364
     1469.800000       0.002369
     1469.900000       0.002386
     1470.000000       0.002407
     1470.100000       0.002436
     1470.200000       0.002470
     1470.300000       0.002510
     1470.400000       0.002554
     1470.500000       0.002600
     1470.600000       0.002646
     1470.700000       0.002691
     1470.800000       0.002732
     1470.900000       0.002769
     1471.000000       0.002801
     1471.100000       0.002825
     1471.200000       0.002845
     1471.300000       0.002859
     1471.400000       0.002868
     1471.500000       0.002872
     1471.600000       0.002874
     1471.700000       0.002875
     1471.800000       0.002877
     1471.900000       0.002879
     1472.000000       0.002887
     1472.100000       0.002899
     1472.200000       0.002918
     1472.300000       0.002944
     1472.400000       0.002975
     1472.500000       0.003013
     1472.600000       0.003054
     1472.700000       0.003101
     1472.800000       0.003150
     1472.900000       0.003201
     1473.000000       0.003251
     1473.100000       0.003300
     1473.200000       0.003345
     1473.300000       0.003386
     1473.400000       0.003423
     1473.500000       0.003455
     1473.600000       0.003483
     1473.700000       0.003508
     1473.800000       0.003530
     1473.900000       0.003553
     1474.000000       0.003575
     1474.100000       0.003600
     1474.200000       0.003629
     1474.300000       0.003662
     1474.400000       0.003701
     1474.500000       0.003747
     1474.600000       0.003801
     1474.700000       0.003861
     1474.800000       0.003926
     1474.900000       0.003997
     1475.000000       0.004068
     1475.100000       0.004140
     1475.200000       0.004211
     1475.300000       0.004279
     1475.400000       0.004342
     1475.500000       0.004399
     1475.600000       0.004451
     1475.700000       0.004494
     1475.800000       0.004531
     1475.900000       0.004561
     1476.000000       0.004585
     1476.100000       0.004606
     1476.200000       0.004624
     1476.300000       0.004644
     1476.400000       0.004666
     1476.500000       0.004692
     1476.600000       0.004724
     1476.700000       0.004763
     1476.800000       0.004811
     1476.900000       0.004865
     1477.000000       0.004929
     1477.100000       0.004999
     1477.200000       0.005076
     1477.300000       0.005157
     1477.400000       0.005241
     1477.500000       0.005326
     1477.600000       0.005409
     1477.700000       0.005489
     1477.800000       0.005565
     1477.900000       0.005634
     1478.000000       0.005697
     1478.100000       0.005754
     1478.200000       0.005805
     1478.300000       0.005851
     1478.400000       0.005894
     1478.500000       0.005934
     1478.600000       0.005973
     1478.700000       0.006015
     1478.800000       0.006059
     1478.900000       0.006109
     1479.000000       0.006167
     1479.100000       0.006231
     1479.200000       0.006305
     1479.300000       0.006387
     1479.400000       0.006476
     1479.500000       0.006571
     1479.600000       0.006670
     1479.700000       0.006774
     1479.800000       0.006879
     1479.900000       0.006986
     1480.000000       0.007090
     1480.100000       0.007193
     1480.200000       0.007292
     1480.300000       0.007386
     1480.400000       0.007478
     1480.500000       0.007564
     1480.600000       0.007649
     1480.700000       0.007733
     1480.800000       0.007818
     1480.900000       0.007907
     1481.000000       0.007999
     1481.100000       0.008097
     1481.200000       0.008201
     1481.300000       0.008312
     1481.400000       0.008432
     1481.500000       0.008559
     1481.600000       0.008694
     1481.700000       0.008836
     1481.800000       0.008982
     1481.900000       0.009132
     1482.000000       0.009282
     1482.100000       0.009432
     1482.200000       0.009578
     1482.300000       0.009720
     1482.400000       0.009855
     1482.500000       0.009985
     1482.600000       0.010110
     1482.700000       0.010228
     1482.800000       0.010341
     1482.900000       0.010450
     1483.000000       0.010557
     1483.100000       0.010665
     1483.200000       0.010772
     1483.300000       0.010882
     1483.400000       0.010994
     1483.500000       0.011115
     1483.600000       0.011246
     1483.700000       0.011385
     1483.800000       0.011534
     1483.900000       0.011691
     1484.000000       0.011857
     1484.100000       0.012029
     1484.200000       0.012205
     1484.300000       0.012386
     1484.400000       0.012568
     1484.500000       0.012751
     1484.600000       0.012931
     1484.700000       0.013109
     1484.800000       0.013283
     1484.900000       0.013452
     1485.000000       0.013617
     1485.100000       0.013778
     1485.200000       0.013938
     1485.300000       0.014098
     1485.400000       0.014258
     1485.500000       0.014422
     1485.600000       0.014590
     1485.700000       0.014765
     1485.800000       0.014947
     1485.900000       0.015137
     1486.000000       0.015338
     1486.100000       0.015547
     1486.200000       0.015767
     1486.300000       0.015996
     1486.400000       0.016233
     1486.500000       0.016477
     1486.600000       0.016725
     1486.700000       0.016976
     1486.800000       0.017228
     1486.900000       0.017480
     1487.000000       0.017731
     1487.100000       0.017981
     1487.200000       0.018231
     1487.300000       0.018478
     1487.400000       0.018726
     1487.500000       0.018974
     1487.600000       0.019223
     1487.700000       0.019476
     1487.800000       0.019733
     1487.900000       0.019999
     1488.000000       0.020273
     1488.100000       0.020563
     1488.200000       0.020872
     1488.300000       0.021200
     1488.400000       0.021546
     1488.500000       0.021911
     1488.600000       0.022283
     1488.700000       0.022664
     1488.800000       0.023050
     1488.900000       0.023442
     1489.000000       0.023838
     1489.100000       0.024236
     1489.200000       0.024633
     1489.300000       0.025028
     1489.400000       0.025421
     1489.500000       0.025809
     1489.600000       0.026194
     1489.700000       0.026575
     1489.800000       0.026952
     1489.900000       0.027331
     1490.000000       0.027710
     1490.100000       0.028094
     1490.200000       0.028485
     1490.300000       0.028884
     1490.400000       0.029298
     1490.500000       0.029725
     1490.600000       0.030167
     1490.700000       0.030626
     1490.800000       0.031102
     1490.900000       0.031594
     1491.000000       0.032098
     1491.100000       0.032620
     1491.200000       0.033154
     1491.300000       0.033702
     1491.400000       0.034259
     1491.500000       0.034826
     1491.600000       0.035403
     1491.700000       0.035984
     1491.800000       0.036569
     1491.900000       0.037161
     1492.000000       0.037759
     1492.100000       0.038364
     1492.200000       0.038977
     1492.300000       0.039600
     1492.400000       0.040236
     1492.500000       0.040884
     1492.600000       0.041545
     1492.700000       0.042225
     1492.800000       0.042924
     1492.900000       0.043643
     1493.000000       0.044382
     1493.100000       0.045143
     1493.200000       0.045922
     1493.300000       0.046722
     1493.400000       0.047541
     1493.500000       0.048377
     1493.600000       0.049227
     1493.700000       0.050088
     1493.800000       0.050961
     1493.900000       0.051840
     1494.000000       0.052727
     1494.100000       0.053622
     1494.200000       0.054531
     1494.300000       0.055449
     1494.400000       0.056373
     1494.500000       0.057303
     1494.600000       0.058243
     1494.700000       0.059192
     1494.800000       0.060159
     1494.900000       0.061143
     1495.000000       0.062152
     1495.100000       0.063186
     1495.200000       0.064251
     1495.300000       0.065356
     1495.400000       0.066495
     1495.500000       0.067664
     1495.600000       0.068870
     1495.700000       0.070110
     1495.800000       0.071383
     1495.900000       0.072686
     1496.000000       0.074023
     1496.100000       0.075384
     1496.200000       0.076771
     1496.300000       0.078179
     1496.400000       0.079608
     1496.500000       0.081058
     1496.600000       0.082532
     1496.700000       0.084024
     1496.800000       0.085541
     1496.900000       0.087086
     1497.000000       0.088657
     1497.100000       0.090254
     1497.200000       0.091879
     1497.300000       0.093537
     1497.400000       0.095228
     1497.500000       0.096962
     1497.600000       0.098741
     1497.700000       0.100555
     1497.800000       0.102422
     1497.900000       0.104330
     1498.000000       0.106297
     1498.100000       0.108315
     1498.200000       0.110385
     1498.300000       0.112506
     1498.400000       0.114670
     1498.500000       0.116889
     1498.600000       0.119146
     1498.700000       0.121445
     1498.800000       0.123781
     1498.900000       0.126152
     1499.000000       0.128559
     1499.100000       0.131002
     1499.200000       0.133482
     1499.300000       0.135994
     1499.400000       0.138538
     1499.500000       0.141118
     1499.600000       0.143736
     1499.700000       0.146392
     1499.800000       0.149091
     1499.900000       0.151828
     1500.000000       0.154623
     1500.100000       0.157461
     1500.200000       0.160360
     1500.300000       0.163324
     1500.400000       0.166350
     1500.500000       0.169452
     1500.600000       0.172605
     1500.700000       0.175850
     1500.800000       0.179161
     1500.900000       0.182546
     1501.000000       0.185997
     1501.100000       0.189515
     1501.200000       0.193101
     1501.300000       0.196756
     1501.400000       0.200486
     1501.500000       0.204275
     1501.600000       0.208115
     1501.700000       0.212006
     1501.800000       0.215942
     1501.900000       0.219923
     1502.000000       0.223953
     1502.100000       0.228037
     1502.200000       0.232164
     1502.300000       0.236338
     1502.400000       0.240550
     1502.500000       0.244811
     1502.600000       0.249117
     1502.700000       0.253482
     1502.800000       0.257902
     1502.900000       0.262376
     1503.000000       0.266924
     1503.100000       0.271535
     1503.200000       0.276216
     1503.300000       0.280966
     1503.400000       0.285788
     1503.500000       0.290683
     1503.600000       0.295650
     1503.700000       0.300690
     1503.800000       0.305809
     1503.900000       0.311010
     1504.000000       0.316278
     1504.100000       0.321620
     1504.200000       0.327013
     1504.300000       0.332448
     1504.400000       0.337934
     1504.500000       0.343485
     1504.600000       0.349091
     1504.700000       0.354742
     1504.800000       0.360442
     1504.900000       0.366166
     1505.000000       0.371899
     1505.100000       0.377657
     1505.200000       0.383473
     1505.300000       0.389330
     1505.400000       0.395203
     1505.500000       0.401092
     1505.600000       0.407008
     1505.700000       0.412953
     1505.800000       0.418921
     1505.900000       0.424914
     1506.000000       0.430925
     1506.100000       0.436946
     1506.200000       0.442994
     1506.300000       0.449098
     1506.400000       0.455255
     1506.500000       0.461450
     1506.600000       0.467701
     1506.700000       0.473994
     1506.800000       0.480336
     1506.900000       0.486722
     1507.000000       0.493158
     1507.100000       0.499643
     1507.200000       0.506162
     1507.300000       0.512721
     1507.400000       0.519297
     1507.500000       0.525898
     1507.600000       0.532507
     1507.700000       0.539117
     1507.800000       0.545726
     1507.900000       0.552326
     1508.000000       0.558918
     1508.100000       0.565458
     1508.200000       0.571931
     1508.300000       0.578388
     1508.400000       0.584863
     1508.500000       0.591321
     1508.600000       0.597729
     1508.700000       0.604095
     1508.800000       0.610405
     1508.900000       0.616676
     1509.000000       0.622914
     1509.100000       0.629114
     1509.200000       0.635283
     1509.300000       0.641422
     1509.400000       0.647533
     1509.500000       0.653621
     1509.600000       0.659684
     1509.700000       0.665719
     1509.800000       0.671720
     1509.900000       0.677704
     1510.000000       0.683668
     1510.100000       0.689609
     1510.200000       0.695516
     1510.300000       0.701397
     1510.400000       0.707245
     1510.500000       0.713062
     1510.600000       0.718862
     1510.700000       0.724656
     1510.800000       0.730412
     1510.900000       0.736094
     1511.000000       0.741732
     1511.100000       0.747323
     1511.200000       0.752873
     1511.300000       0.758359
     1511.400000       0.763785
     1511.500000       0.769133
     1511.600000       0.774393
     1511.700000       0.779581
     1511.800000       0.784703
     1511.900000       0.789765
     1512.000000       0.794734
     1512.100000       0.799616
     1512.200000       0.804450
     1512.300000       0.809246
     1512.400000       0.813981
     1512.500000       0.818647
     1512.600000       0.823245
     1512.700000       0.827760
     1512.800000       0.832199
     1512.900000       0.836546
     1513.000000       0.840799
     1513.100000       0.844995
     1513.200000       0.849113
     1513.300000       0.853171
     1513.400000       0.857142
     1513.500000       0.861039
     1513.600000       0.864858
     1513.700000       0.868605
     1513.800000       0.872218
     1513.900000       0.875670
     1514.000000       0.879193
     1514.100000       0.883182
     1514.200000       0.887389
     1514.300000       0.891919
     1514.400000       0.896605
     1514.500000       0.899970
     1514.600000       0.902145
     1514.700000       0.904512
     1514.800000       0.907893
     1514.900000       0.911583
     1515.000000       0.914896
     1515.100000       0.918068
     1515.200000       0.921171
     1515.300000       0.924182
     1515.400000       0.926997
     1515.500000       0.929590
     1515.600000       0.932039
     1515.700000       0.934345
     1515.800000       0.936492
     1515.900000       0.938410
     1516.000000       0.940181
     1516.100000       0.941765
     1516.200000       0.943184
     1516.300000       0.944462
     1516.400000       0.945582
     1516.500000       0.946578
     1516.600000       0.947454
     1516.700000       0.948254
     1516.800000       0.948974
     1516.900000       0.949624
     1517.000000       0.950220
     1517.100000       0.950773
     1517.200000       0.951281
     1517.300000       0.951744
     1517.400000       0.952168
     1517.500000       0.952549
     1517.600000       0.952871
     1517.700000       0.953163
     1517.800000       0.953433
     1517.900000       0.953664
     1518.000000       0.953836
     1518.100000       0.953962
     1518.200000       0.953996
     1518.300000       0.954010
     1518.400000       0.954006
     1518.500000       0.953890
     1518.600000       0.953723
     1518.700000       0.953537
     1518.800000       0.953254
     1518.900000       0.952884
     1519.000000       0.952417
     1519.100000       0.951893
     1519.200000       0.951296
     1519.300000       0.950633
     1519.400000       0.949884
     1519.500000       0.949080
     1519.600000       0.948277
     1519.700000       0.947463
     1519.800000       0.946651
     1519.900000       0.945850
     1520.000000       0.945052
     1520.100000       0.944253
     1520.200000       0.943455
     1520.300000       0.942653
     1520.400000       0.941854
     1520.500000       0.941079
     1520.600000       0.940327
     1520.700000       0.939587
     1520.800000       0.938862
     1520.900000       0.938136
     1521.000000       0.937385
     1521.100000       0.936628
     1521.200000       0.935876
     1521.300000       0.935131
     1521.400000       0.934350
     1521.500000       0.933519
     1521.600000       0.932659
     1521.700000       0.931759
     1521.800000       0.930837
     1521.900000       0.929898
     1522.000000       0.928942
     1522.100000       0.927982
     1522.200000       0.927017
     1522.300000       0.926070
     1522.400000       0.925151
     1522.500000       0.924266
     1522.600000       0.923441
     1522.700000       0.922665
     1522.800000       0.921929
     1522.900000       0.921222
     1523.000000       0.920575
     1523.100000       0.920008
     1523.200000       0.919483
     1523.300000       0.919004
     1523.400000       0.918554
     1523.500000       0.918110
     1523.600000       0.917675
     1523.700000       0.917244
     1523.800000       0.916831
     1523.900000       0.916401
     1524.000000       0.915885
     1524.100000       0.915300
     1524.200000       0.914676
     1524.300000       0.914017
     1524.400000       0.913333
     1524.500000       0.912621
     1524.600000       0.911885
     1524.700000       0.911122
     1524.800000       0.910340
     1524.900000       0.909594
     1525.000000       0.908878
     1525.100000       0.908201
     1525.200000       0.907567
     1525.300000       0.906969
     1525.400000       0.906415
     1525.500000       0.905915
     1525.600000       0.905492
     1525.700000       0.905135
     1525.800000       0.904813
     1525.900000       0.904523
     1526.000000       0.904249
     1526.100000       0.903972
     1526.200000       0.903700
     1526.300000       0.903436
     1526.400000       0.903184
     1526.500000       0.902883
     1526.600000       0.902445
     1526.700000       0.901942
     1526.800000       0.901453
     1526.900000       0.900941
     1527.000000       0.900355
     1527.100000       0.899681
     1527.200000       0.898967
     1527.300000       0.898214
     1527.400000       0.897432
     1527.500000       0.896609
     1527.600000       0.895769
     1527.700000       0.894958
     1527.800000       0.894168
     1527.900000       0.893409
     1528.000000       0.892668
     1528.100000       0.891987
     1528.200000       0.891415
     1528.300000       0.890906
     1528.400000       0.890408
     1528.500000       0.889936
     1528.600000       0.889579
     1528.700000       0.889327
     1528.800000       0.889136
     1528.900000       0.888987
     1529.000000       0.888875
     1529.100000       0.888865
     1529.200000       0.888920
     1529.300000       0.888984
     1529.400000       0.889042
     1529.500000       0.889109
     1529.600000       0.889209
     1529.700000       0.889348
     1529.800000       0.889526
     1529.900000       0.889763
     1530.000000       0.890007
     1530.100000       0.890244
     1530.200000       0.890478
     1530.300000       0.890700
     1530.400000       0.890923
     1530.500000       0.891215
     1530.600000       0.891613
     1530.700000       0.892062
     1530.800000       0.892576
     1530.900000       0.893124
     1531.000000       0.893713
     1531.100000       0.894343
     1531.200000       0.895014
     1531.300000       0.895747
     1531.400000       0.896501
     1531.500000       0.897267
     1531.600000       0.898041
     1531.700000       0.898813
     1531.800000       0.899586
     1531.900000       0.900358
     1532.000000       0.901145
     1532.100000       0.901874
     1532.200000       0.902477
     1532.300000       0.903020
     1532.400000       0.903557
     1532.500000       0.904083
     1532.600000       0.904489
     1532.700000       0.904795
     1532.800000       0.905057
     1532.900000       0.905287
     1533.000000       0.905461
     1533.100000       0.905601
     1533.200000       0.905715
     1533.300000       0.905806
     1533.400000       0.905871
     1533.500000       0.905938
     1533.600000       0.906024
     1533.700000       0.906126
     1533.800000       0.906245
     1533.900000       0.906388
     1534.000000       0.906543
     1534.100000       0.906709
     1534.200000       0.906891
     1534.300000       0.907097
     1534.400000       0.907320
     1534.500000       0.907533
     1534.600000       0.907723
     1534.700000       0.907907
     1534.800000       0.908086
     1534.900000       0.908265
     1535.000000       0.908456
     1535.100000       0.908631
     1535.200000       0.908697
     1535.300000       0.908693
     1535.400000       0.908688
     1535.500000       0.908685
     1535.600000       0.908680
     1535.700000       0.908643
     1535.800000       0.908550
     1535.900000       0.908492
     1536.000000       0.908456
     1536.100000       0.908440
     1536.200000       0.908477
     1536.300000       0.908559
     1536.400000       0.908664
     1536.500000       0.908821
     1536.600000       0.909015
     1536.700000       0.909279
     1536.800000       0.909607
     1536.900000       0.910032
     1537.000000       0.910519
     1537.100000       0.911043
     1537.200000       0.911590
     1537.300000       0.912188
     1537.400000       0.912899
     1537.500000       0.913648
     1537.600000       0.914399
     1537.700000       0.915154
     1537.800000       0.915886
     1537.900000       0.916594
     1538.000000       0.917314
     1538.100000       0.918082
     1538.200000       0.918837
     1538.300000       0.919509
     1538.400000       0.920132
     1538.500000       0.920745
     1538.600000       0.921354
     1538.700000       0.921934
     1538.800000       0.922468
     1538.900000       0.922979
     1539.000000       0.923474
     1539.100000       0.923962
     1539.200000       0.924469
     1539.300000       0.924999
     1539.400000       0.925548
     1539.500000       0.926124
     1539.600000       0.926712
     1539.700000       0.927320
     1539.800000       0.927943
     1539.900000       0.928604
     1540.000000       0.929324
     1540.100000       0.930068
     1540.200000       0.930803
     1540.300000       0.931539
     1540.400000       0.932269
     1540.500000       0.932990
     1540.600000       0.933712
     1540.700000       0.934453
     1540.800000       0.935178
     1540.900000       0.935806
     1541.000000       0.936376
     1541.100000       0.936956
     1541.200000       0.937552
     1541.300000       0.938129
     1541.400000       0.938649
     1541.500000       0.939141
     1541.600000       0.939624
     1541.700000       0.940098
     1541.800000       0.940587
     1541.900000       0.941102
     1542.000000       0.941632
     1542.100000       0.942170
     1542.200000       0.942722
     1542.300000       0.943316
     1542.400000       0.943957
     1542.500000       0.944643
     1542.600000       0.945393
     1542.700000       0.946183
     1542.800000       0.946971
     1542.900000       0.947770
     1543.000000       0.948596
     1543.100000       0.949461
     1543.200000       0.950333
     1543.300000       0.951206
     1543.400000       0.952058
     1543.500000       0.952795
     1543.600000       0.953446
     1543.700000       0.954083
     1543.800000       0.954754
     1543.900000       0.955341
     1544.000000       0.955689
     1544.100000       0.955948
     1544.200000       0.956140
     1544.300000       0.956308
     1544.400000       0.956387
     1544.500000       0.956364
     1544.600000       0.956307
     1544.700000       0.956212
     1544.800000       0.956049
     1544.900000       0.955871
     1545.000000       0.955707
     1545.100000       0.955544
     1545.200000       0.955371
     1545.300000       0.955200
     1545.400000       0.955074
     1545.500000       0.954967
     1545.600000       0.954921
     1545.700000       0.954944
     1545.800000       0.955063
     1545.900000       0.955190
     1546.000000       0.955325
     1546.100000       0.955502
     1546.200000       0.955789
     1546.300000       0.956119
     1546.400000       0.956456
     1546.500000       0.956808
     1546.600000       0.957175
     1546.700000       0.957564
     1546.800000       0.957969
     1546.900000       0.958391
     1547.000000       0.958828
     1547.100000       0.959278
     1547.200000       0.959741
     1547.300000       0.960213
     1547.400000       0.960688
     1547.500000       0.961186
     1547.600000       0.961734
     1547.700000       0.962310
     1547.800000       0.962868
     1547.900000       0.963416
     1548.000000       0.963997
     1548.100000       0.964620
     1548.200000       0.965263
     1548.300000       0.965919
     1548.400000       0.966579
     1548.500000       0.967223
     1548.600000       0.967847
     1548.700000       0.968455
     1548.800000       0.969040
     1548.900000       0.969608
     1549.000000       0.970166
     1549.100000       0.970722
     1549.200000       0.971214
     1549.300000       0.971628
     1549.400000       0.972005
     1549.500000       0.972400
     1549.600000       0.972787
     1549.700000       0.973010
     1549.800000       0.973132
     1549.900000       0.973220
     1550.000000       0.973302
     1550.100000       0.973363
     1550.200000       0.973342
     1550.300000       0.973270
     1550.400000       0.973149
     1550.500000       0.972839
     1550.600000       0.972438
     1550.700000       0.972050
     1550.800000       0.971671
     1550.900000       0.971348
     1551.000000       0.971065
     1551.100000       0.970842
     1551.200000       0.970674
     1551.300000       0.970550
     1551.400000       0.970527
     1551.500000       0.970524
     1551.600000       0.970523
     1551.700000       0.970570
     1551.800000       0.970666
     1551.900000       0.970811
     1552.000000       0.971053
     1552.100000       0.971312
     1552.200000       0.971582
     1552.300000       0.971887
     1552.400000       0.972262
     1552.500000       0.972683
     1552.600000       0.973120
     1552.700000       0.973560
     1552.800000       0.974028
     1552.900000       0.974500
     1553.000000       0.974972
     1553.100000       0.975455
     1553.200000       0.975947
     1553.300000       0.976411
     1553.400000       0.976838
     1553.500000       0.977244
     1553.600000       0.977633
     1553.700000       0.978006
     1553.800000       0.978366
     1553.900000       0.978716
     1554.000000       0.979049
     1554.100000       0.979358
     1554.200000       0.979655
     1554.300000       0.979961
     1554.400000       0.980274
     1554.500000       0.980597
     1554.600000       0.980935
     1554.700000       0.981280
     1554.800000       0.981626
     1554.900000       0.981976
     1555.000000       0.982365
     1555.100000       0.982817
     1555.200000       0.983288
     1555.300000       0.983747
     1555.400000       0.984213
     1555.500000       0.984708
     1555.600000       0.985242
     1555.700000       0.985757
     1555.800000       0.986246
     1555.900000       0.986698
     1556.000000       0.987077
     1556.100000       0.987406
     1556.200000       0.987713
     1556.300000       0.987994
     1556.400000       0.988240
     1556.500000       0.988428
     1556.600000       0.988584
     1556.700000       0.988695
     1556.800000       0.988774
     1556.900000       0.988842
     1557.000000       0.988872
     1557.100000       0.988888
     1557.200000       0.988926
     1557.300000       0.988996
     1557.400000       0.989068
     1557.500000       0.989123
     1557.600000       0.989189
     1557.700000       0.989330
     1557.800000       0.989586
     1557.900000       0.989825
     1558.000000       0.990023
     1558.100000       0.990220
     1558.200000       0.990434
     1558.300000       0.990655
     1558.400000       0.990856
     1558.500000       0.991061
     1558.600000       0.991166
     1558.700000       0.991158
     1558.800000       0.991137
     1558.900000       0.991096
     1559.000000       0.990995
     1559.100000       0.990858
     1559.200000       0.990636
     1559.300000       0.990288
     1559.400000       0.989914
     1559.500000       0.989502
     1559.600000       0.989089
     1559.700000       0.988676
     1559.800000       0.988267
     1559.900000       0.987867
     1560.000000       0.987478
     1560.100000       0.987112
     1560.200000       0.986797
     1560.300000       0.986552
     1560.400000       0.986416
     1560.500000       0.986325
     1560.600000       0.986296
     1560.700000       0.986282
     1560.800000       0.986278
     1560.900000       0.986377
     1561.000000       0.986553
     1561.100000       0.986711
     1561.200000       0.986875
     1561.300000       0.986986
     1561.400000       0.987050
     1561.500000       0.987069
     1561.600000       0.987054
     1561.700000       0.987015
     1561.800000       0.986942
     1561.900000       0.986709
     1562.000000       0.986407
     1562.100000       0.986113
     1562.200000       0.985786
     1562.300000       0.985423
     1562.400000       0.985012
     1562.500000       0.984600
     1562.600000       0.984205
     1562.700000       0.983824
     1562.800000       0.983471
     1562.900000       0.983138
     1563.000000       0.982850
     1563.100000       0.982611
     1563.200000       0.982399
     1563.300000       0.982193
     1563.400000       0.981997
     1563.500000       0.981853
     1563.600000       0.981759
     1563.700000       0.981672
     1563.800000       0.981579
     1563.900000       0.981466
     1564.000000       0.981317
     1564.100000       0.981040
     1564.200000       0.980692
     1564.300000       0.980319
     1564.400000       0.979887
     1564.500000       0.979339
     1564.600000       0.978609
     1564.700000       0.977806
     1564.800000       0.976982
     1564.900000       0.976103
     1565.000000       0.975171
     1565.100000       0.974178
     1565.200000       0.973167
     1565.300000       0.972137
     1565.400000       0.971114
     1565.500000       0.970146
     1565.600000       0.969218
     1565.700000       0.968329
     1565.800000       0.967486
     1565.900000       0.966663
     1566.000000       0.965850
     1566.100000       0.965063
     1566.200000       0.964347
     1566.300000       0.963693
     1566.400000       0.963103
     1566.500000       0.962587
     1566.600000       0.962124
     1566.700000       0.961693
     1566.800000       0.961284
     1566.900000       0.960921
     1567.000000       0.960622
     1567.100000       0.960356
     1567.200000       0.960073
     1567.300000       0.959766
     1567.400000       0.959517
     1567.500000       0.959343
     1567.600000       0.959206
     1567.700000       0.959098
     1567.800000       0.959014
     1567.900000       0.958968
     1568.000000       0.958941
     1568.100000       0.958935
     1568.200000       0.959033
     1568.300000       0.959249
     1568.400000       0.959491
     1568.500000       0.959724
     1568.600000       0.959956
     1568.700000       0.960183
     1568.800000       0.960405
     1568.900000       0.960624
     1569.000000       0.960848
     1569.100000       0.961055
     1569.200000       0.961226
     1569.300000       0.961376
     1569.400000       0.961498
     1569.500000       0.961592
     1569.600000       0.961688
     1569.700000       0.961809
     1569.800000       0.961945
     1569.900000       0.962090
     1570.000000       0.962236
     1570.100000       0.962411
     1570.200000       0.962659
     1570.300000       0.962969
     1570.400000       0.963354
     1570.500000       0.963800
     1570.600000       0.964277
     1570.700000       0.964774
     1570.800000       0.965293
     1570.900000       0.965839
     1571.000000       0.966420
     1571.100000       0.966986
     1571.200000       0.967528
     1571.300000       0.968041
     1571.400000       0.968496
     1571.500000       0.968910
     1571.600000       0.969276
     1571.700000       0.969586
     1571.800000       0.969835
     1571.900000       0.970007
     1572.000000       0.970144
     1572.100000       0.970186
     1572.200000       0.970182
     1572.300000       0.970173
     1572.400000       0.970157
     1572.500000       0.970142
     1572.600000       0.970149
     1572.700000       0.970183
     1572.800000       0.970286
     1572.900000       0.970445
     1573.000000       0.970666
     1573.100000       0.970952
     1573.200000       0.971365
     1573.300000       0.971852
     1573.400000       0.972368
     1573.500000       0.972937
     1573.600000       0.973546
     1573.700000       0.974212
     1573.800000       0.974900
     1573.900000       0.975578
     1574.000000       0.976243
     1574.100000       0.976863
     1574.200000       0.977446
     1574.300000       0.977984
     1574.400000       0.978479
     1574.500000       0.978933
     1574.600000       0.979329
     1574.700000       0.979666
     1574.800000       0.979947
     1574.900000       0.980181
     1575.000000       0.980421
     1575.100000       0.980681
     1575.200000       0.980956
     1575.300000       0.981250
     1575.400000       0.981569
     1575.500000       0.981910
     1575.600000       0.982255
     1575.700000       0.982604
     1575.800000       0.982998
     1575.900000       0.983492
     1576.000000       0.984038
     1576.100000       0.984547
     1576.200000       0.985039
     1576.300000       0.985514
     1576.400000       0.985985
     1576.500000       0.986426
     1576.600000       0.986801
     1576.700000       0.987135
     1576.800000       0.987390
     1576.900000       0.987552
     1577.000000       0.987651
     1577.100000       0.987708
     1577.200000       0.987728
     1577.300000       0.987717
     1577.400000       0.987670
     1577.500000       0.987612
     1577.600000       0.987576
     1577.700000       0.987551
     1577.800000       0.987545
     1577.900000       0.987624
     1578.000000       0.987774
     1578.100000       0.987964
     1578.200000       0.988247
     1578.300000       0.988584
     1578.400000       0.988999
     1578.500000       0.989485
     1578.600000       0.990018
     1578.700000       0.990617
     1578.800000       0.991227
     1578.900000       0.991843
     1579.000000       0.992463
     1579.100000       0.993070
     1579.200000       0.993658
     1579.300000       0.994220
     1579.400000       0.994746
     1579.500000       0.995156
     1579.600000       0.995451
     1579.700000       0.995695
     1579.800000       0.995912
     1579.900000       0.996113
     1580.000000       0.996290
     1580.100000       0.996437
     1580.200000       0.996563
     1580.300000       0.996701
     1580.400000       0.996853
     1580.500000       0.997027
     1580.600000       0.997243
     1580.700000       0.997506
     1580.800000       0.997786
     1580.900000       0.998087
     1581.000000       0.998399
     1581.100000       0.998705
     1581.200000       0.999010
     1581.300000       0.999307
     1581.400000       0.999613
     1581.500000       0.999883
     1581.600000       0.999971
     1581.700000       1.000000
     1581.800000       0.999975
     1581.900000       0.999821
     1582.000000       0.999575
     1582.100000       0.999303
     1582.200000       0.998955
     1582.300000       0.998533
     1582.400000       0.997967
     1582.500000       0.997343
     1582.600000       0.996776
     1582.700000       0.996228
     1582.800000       0.995695
     1582.900000       0.995131
     1583.000000       0.994648
     1583.100000       0.994331
     1583.200000       0.994080
     1583.300000       0.994003
     1583.400000       0.994074
     1583.500000       0.994199
     1583.600000       0.994446
     1583.700000       0.994856
     1583.800000       0.995326
     1583.900000       0.995887
     1584.000000       0.996474
     1584.100000       0.997080
     1584.200000       0.997697
     1584.300000       0.998268
     1584.400000       0.998821
     1584.500000       0.999292
     1584.600000       0.999609
     1584.700000       0.999864
     1584.800000       0.999952
     1584.900000       0.999897
     1585.000000       0.999776
     1585.100000       0.999536
     1585.200000       0.999072
     1585.300000       0.998489
     1585.400000       0.997867
     1585.500000       0.997195
     1585.600000       0.996434
     1585.700000       0.995580
     1585.800000       0.994710
     1585.900000       0.993856
     1586.000000       0.993013
     1586.100000       0.992182
     1586.200000       0.991372
     1586.300000       0.990605
     1586.400000       0.989886
     1586.500000       0.989201
     1586.600000       0.988558
     1586.700000       0.987954
     1586.800000       0.987369
     1586.900000       0.986808
     1587.000000       0.986254
     1587.100000       0.985657
     1587.200000       0.985023
     1587.300000       0.984395
     1587.400000       0.983821
     1587.500000       0.983263
     1587.600000       0.982671
     1587.700000       0.982045
     1587.800000       0.981401
     1587.900000       0.980736
     1588.000000       0.980077
     1588.100000       0.979479
     1588.200000       0.978938
     1588.300000       0.978451
     1588.400000       0.978028
     1588.500000       0.977692
     1588.600000       0.977430
     1588.700000       0.977177
     1588.800000       0.977035
     1588.900000       0.977033
     1589.000000       0.977035
     1589.100000       0.977046
     1589.200000       0.977145
     1589.300000       0.977293
     1589.400000       0.977448
     1589.500000       0.977640
     1589.600000       0.977859
     1589.700000       0.978127
     1589.800000       0.978411
     1589.900000       0.978680
     1590.000000       0.978944
     1590.100000       0.979191
     1590.200000       0.979376
     1590.300000       0.979541
     1590.400000       0.979728
     1590.500000       0.979926
     1590.600000       0.980109
     1590.700000       0.980266
     1590.800000       0.980411
     1590.900000       0.980561
     1591.000000       0.980705
     1591.100000       0.980825
     1591.200000       0.980914
     1591.300000       0.980980
     1591.400000       0.981013
     1591.500000       0.981036
     1591.600000       0.981045
     1591.700000       0.980995
     1591.800000       0.980883
     1591.900000       0.980740
     1592.000000       0.980513
     1592.100000       0.980246
     1592.200000       0.979946
     1592.300000       0.979619
     1592.400000       0.979269
     1592.500000       0.978819
     1592.600000       0.978352
     1592.700000       0.977917
     1592.800000       0.977488
     1592.900000       0.977064
     1593.000000       0.976650
     1593.100000       0.976247
     1593.200000       0.975874
     1593.300000       0.975522
     1593.400000       0.975190
     1593.500000       0.974872
     1593.600000       0.974578
     1593.700000       0.974316
     1593.800000       0.974078
     1593.900000       0.973882
     1594.000000       0.973738
     1594.100000       0.973598
     1594.200000       0.973409
     1594.300000       0.973174
     1594.400000       0.972942
     1594.500000       0.972726
     1594.600000       0.972498
     1594.700000       0.972220
     1594.800000       0.971888
     1594.900000       0.971537
     1595.000000       0.971154
     1595.100000       0.970758
     1595.200000       0.970367
     1595.300000       0.969968
     1595.400000       0.969586
     1595.500000       0.969240
     1595.600000       0.968925
     1595.700000       0.968664
     1595.800000       0.968438
     1595.900000       0.968260
     1596.000000       0.968136
     1596.100000       0.968038
     1596.200000       0.967959
     1596.300000       0.967896
     1596.400000       0.967838
     1596.500000       0.967778
     1596.600000       0.967720
     1596.700000       0.967642
     1596.800000       0.967536
     1596.900000       0.967419
     1597.000000       0.967218
     1597.100000       0.966895
     1597.200000       0.966525
     1597.300000       0.966108
     1597.400000       0.965640
     1597.500000       0.965119
     1597.600000       0.964529
     1597.700000       0.963897
     1597.800000       0.963196
     1597.900000       0.962465
     1598.000000       0.961803
     1598.100000       0.961195
     1598.200000       0.960615
     1598.300000       0.960038
     1598.400000       0.959483
     1598.500000       0.958998
     1598.600000       0.958575
     1598.700000       0.958203
     1598.800000       0.957915
     1598.900000       0.957661
     1599.000000       0.957426
     1599.100000       0.957200
     1599.200000       0.956983
     1599.300000       0.956774
     1599.400000       0.956575
     1599.500000       0.956372
     1599.600000       0.956163
     1599.700000       0.955946
     1599.800000       0.955680
     1599.900000       0.955342
     1600.000000       0.955002
     1600.100000       0.954683
     1600.200000       0.954374
     1600.300000       0.954096
     1600.400000       0.953847
     1600.500000       0.953604
     1600.600000       0.953351
     1600.700000       0.953117
     1600.800000       0.953041
     1600.900000       0.953125
     1601.000000       0.953260
     1601.100000       0.953420
     1601.200000       0.953636
     1601.300000       0.953905
     1601.400000       0.954253
     1601.500000       0.954651
     1601.600000       0.955076
     1601.700000       0.955548
     1601.800000       0.955953
     1601.900000       0.956253
     1602.000000       0.956486
     1602.100000       0.956667
     1602.200000       0.956836
     1602.300000       0.956922
     1602.400000       0.956893
     1602.500000       0.956810
     1602.600000       0.956688
     1602.700000       0.956436
     1602.800000       0.956113
     1602.900000       0.955770
     1603.000000       0.955380
     1603.100000       0.955007
     1603.200000       0.954663
     1603.300000       0.954328
     1603.400000       0.953969
     1603.500000       0.953585
     1603.600000       0.953422
     1603.700000       0.953438
     1603.800000       0.953476
     1603.900000       0.953541
     1604.000000       0.953693
     1604.100000       0.953881
     1604.200000       0.954093
     1604.300000       0.954331
     1604.400000       0.954609
     1604.500000       0.954903
     1604.600000       0.955073
     1604.700000       0.955059
     1604.800000       0.954979
     1604.900000       0.954859
     1605.000000       0.954582
     1605.100000       0.954171
     1605.200000       0.953674
     1605.300000       0.953009
     1605.400000       0.952269
     1605.500000       0.951442
     1605.600000       0.950527
     1605.700000       0.949605
     1605.800000       0.948667
     1605.900000       0.947775
     1606.000000       0.946954
     1606.100000       0.946188
     1606.200000       0.945503
     1606.300000       0.944823
     1606.400000       0.944322
     1606.500000       0.944153
     1606.600000       0.944051
     1606.700000       0.944021
     1606.800000       0.944206
     1606.900000       0.944549
     1607.000000       0.944941
     1607.100000       0.945475
     1607.200000       0.946097
     1607.300000       0.946845
     1607.400000       0.947682
     1607.500000       0.948426
     1607.600000       0.949092
     1607.700000       0.949736
     1607.800000       0.950364
     1607.900000       0.950973
     1608.000000       0.951519
     1608.100000       0.952014
     1608.200000       0.952450
     1608.300000       0.952792
     1608.400000       0.953074
     1608.500000       0.953346
     1608.600000       0.953646
     1608.700000       0.953954
     1608.800000       0.954262
     1608.900000       0.954584
     1609.000000       0.954907
     1609.100000       0.955217
     1609.200000       0.955527
     1609.300000       0.955876
     1609.400000       0.956283
     1609.500000       0.956710
     1609.600000       0.957137
     1609.700000       0.957573
     1609.800000       0.957913
     1609.900000       0.958128
     1610.000000       0.958291
     1610.100000       0.958489
     1610.200000       0.958737
     1610.300000       0.958861
     1610.400000       0.958847
     1610.500000       0.958807
     1610.600000       0.958751
     1610.700000       0.958640
     1610.800000       0.958507
     1610.900000       0.958391
     1611.000000       0.958279
     1611.100000       0.958167
     1611.200000       0.958041
     1611.300000       0.957931
     1611.400000       0.957878
     1611.500000       0.957843
     1611.600000       0.957828
     1611.700000       0.957929
     1611.800000       0.958151
     1611.900000       0.958352
     1612.000000       0.958537
     1612.100000       0.958731
     1612.200000       0.958950
     1612.300000       0.959181
     1612.400000       0.959410
     1612.500000       0.959658
     1612.600000       0.959874
     1612.700000       0.959996
     1612.800000       0.960078
     1612.900000       0.960137
     1613.000000       0.960187
     1613.100000       0.960226
     1613.200000       0.960231
     1613.300000       0.960202
     1613.400000       0.960156
     1613.500000       0.960088
     1613.600000       0.959996
     1613.700000       0.959959
     1613.800000       0.959979
     1613.900000       0.960016
     1614.000000       0.960068
     1614.100000       0.960152
     1614.200000       0.960249
     1614.300000       0.960369
     1614.400000       0.960517
     1614.500000       0.960691
     1614.600000       0.960900
     1614.700000       0.961121
     1614.800000       0.961346
     1614.900000       0.961578
     1615.000000       0.961766
     1615.100000       0.961901
     1615.200000       0.962016
     1615.300000       0.962130
     1615.400000       0.962239
     1615.500000       0.962335
     1615.600000       0.962403
     1615.700000       0.962461
     1615.800000       0.962536
     1615.900000       0.962635
     1616.000000       0.962758
     1616.100000       0.962945
     1616.200000       0.963213
     1616.300000       0.963489
     1616.400000       0.963743
     1616.500000       0.964005
     1616.600000       0.964313
     1616.700000       0.964678
     1616.800000       0.965064
     1616.900000       0.965467
     1617.000000       0.965883
     1617.100000       0.966226
     1617.200000       0.966501
     1617.300000       0.966739
     1617.400000       0.966962
     1617.500000       0.967170
     1617.600000       0.967330
     1617.700000       0.967426
     1617.800000       0.967513
     1617.900000       0.967535
     1618.000000       0.967518
     1618.100000       0.967498
     1618.200000       0.967510
     1618.300000       0.967558
     1618.400000       0.967626
     1618.500000       0.967761
     1618.600000       0.967947
     1618.700000       0.968135
     1618.800000       0.968344
     1618.900000       0.968594
     1619.000000       0.968963
     1619.100000       0.969431
     1619.200000       0.969899
     1619.300000       0.970385
     1619.400000       0.970851
     1619.500000       0.971232
     1619.600000       0.971558
     1619.700000       0.971894
     1619.800000       0.972304
     1619.900000       0.972657
     1620.000000       0.972767
     1620.100000       0.972757
     1620.200000       0.972737
     1620.300000       0.972681
     1620.400000       0.972559
     1620.500000       0.972422
     1620.600000       0.972271
     1620.700000       0.972102
     1620.800000       0.971917
     1620.900000       0.971740
     1621.000000       0.971657
     1621.100000       0.971685
     1621.200000       0.971766
     1621.300000       0.971886
     1621.400000       0.972158
     1621.500000       0.972519
     1621.600000       0.972873
     1621.700000       0.973257
     1621.800000       0.973678
     1621.900000       0.974174
     1622.000000       0.974720
     1622.100000       0.975286
     1622.200000       0.975836
     1622.300000       0.976261
     1622.400000       0.976429
     1622.500000       0.976524
     1622.600000       0.976612
     1622.700000       0.976725
     1622.800000       0.976815
     1622.900000       0.976783
     1623.000000       0.976507
     1623.100000       0.976177
     1623.200000       0.975873
     1623.300000       0.975575
     1623.400000       0.975478
     1623.500000       0.975476
     1623.600000       0.975475
     1623.700000       0.975493
     1623.800000       0.975564
     1623.900000       0.975694
     1624.000000       0.975989
     1624.100000       0.976456
     1624.200000       0.976975
     1624.300000       0.977606
     1624.400000       0.978284
     1624.500000       0.978916
     1624.600000       0.979541
     1624.700000       0.980151
     1624.800000       0.980761
     1624.900000       0.981343
     1625.000000       0.981853
     1625.100000       0.982365
     1625.200000       0.982698
     1625.300000       0.982756
     1625.400000       0.982683
     1625.500000       0.982550
     1625.600000       0.982408
     1625.700000       0.982240
     1625.800000       0.982017
     1625.900000       0.981716
     1626.000000       0.981394
     1626.100000       0.981027
     1626.200000       0.980648
     1626.300000       0.980520
     1626.400000       0.980612
     1626.500000       0.980770
     1626.600000       0.980926
     1626.700000       0.981109
     1626.800000       0.981333
     1626.900000       0.981693
     1627.000000       0.982173
     1627.100000       0.982700
     1627.200000       0.983323
     1627.300000       0.983961
     1627.400000       0.984495
     1627.500000       0.984961
     1627.600000       0.985357
     1627.700000       0.985693
     1627.800000       0.986001
     1627.900000       0.986180
     1628.000000       0.986297
     1628.100000       0.986364
     1628.200000       0.986297
     1628.300000       0.986010
     1628.400000       0.985701
     1628.500000       0.985442
     1628.600000       0.985188
     1628.700000       0.984975
     1628.800000       0.984801
     1628.900000       0.984634
     1629.000000       0.984445
     1629.100000       0.984243
     1629.200000       0.984151
     1629.300000       0.984351
     1629.400000       0.984735
     1629.500000       0.985064
     1629.600000       0.985358
     1629.700000       0.985658
     1629.800000       0.985991
     1629.900000       0.986342
     1630.000000       0.986690
     1630.100000       0.987080
     1630.200000       0.987431
     1630.300000       0.987594
     1630.400000       0.987686
     1630.500000       0.987733
     1630.600000       0.987713
     1630.700000       0.987637
     1630.800000       0.987538
     1630.900000       0.987398
     1631.000000       0.987211
     1631.100000       0.986989
     1631.200000       0.986715
     1631.300000       0.986444
     1631.400000       0.986208
     1631.500000       0.986025
     1631.600000       0.985928
     1631.700000       0.985930
     1631.800000       0.985934
     1631.900000       0.985949
     1632.000000       0.985976
     1632.100000       0.986013
     1632.200000       0.986136
     1632.300000       0.986385
     1632.400000       0.986619
     1632.500000       0.986827
     1632.600000       0.987010
     1632.700000       0.987124
     1632.800000       0.987200
     1632.900000       0.987260
     1633.000000       0.987316
     1633.100000       0.987365
     1633.200000       0.987382
     1633.300000       0.987304
     1633.400000       0.987185
     1633.500000       0.987068
     1633.600000       0.986930
     1633.700000       0.986804
     1633.800000       0.986705
     1633.900000       0.986619
     1634.000000       0.986572
     1634.100000       0.986555
     1634.200000       0.986575
     1634.300000       0.986628
     1634.400000       0.986713
     1634.500000       0.986824
     1634.600000       0.986967
     1634.700000       0.987155
     1634.800000       0.987336
     1634.900000       0.987505
     1635.000000       0.987665
     1635.100000       0.987803
     1635.200000       0.987923
     1635.300000       0.988032
     1635.400000       0.988133
     1635.500000       0.988233
     1635.600000       0.988275
     1635.700000       0.988275
     1635.800000       0.988245
     1635.900000       0.988214
     1636.000000       0.988194
     1636.100000       0.988182
     1636.200000       0.988189
     1636.300000       0.988208
     1636.400000       0.988227
     1636.500000       0.988246
     1636.600000       0.988266
     1636.700000       0.988299
     1636.800000       0.988363
     1636.900000       0.988437
     1637.000000       0.988507
     1637.100000       0.988579
     1637.200000       0.988630
     1637.300000       0.988649
     1637.400000       0.988641
     1637.500000       0.988623
     1637.600000       0.988560
     1637.700000       0.988467
     1637.800000       0.988364
     1637.900000       0.988234
     1638.000000       0.988082
     1638.100000       0.987890
     1638.200000       0.987678
     1638.300000       0.987470
     1638.400000       0.987260
     1638.500000       0.987062
     1638.600000       0.986906
     1638.700000       0.986777
     1638.800000       0.986658
     1638.900000       0.986535
     1639.000000       0.986421
     1639.100000       0.986356
     1639.200000       0.986326
     1639.300000       0.986315
     1639.400000       0.986303
     1639.500000       0.986289
     1639.600000       0.986267
     1639.700000       0.986197
     1639.800000       0.986057
     1639.900000       0.985899
     1640.000000       0.985725
     1640.100000       0.985520
     1640.200000       0.985270
     1640.300000       0.984952
     1640.400000       0.984600
     1640.500000       0.984236
     1640.600000       0.983858
     1640.700000       0.983493
     1640.800000       0.983172
     1640.900000       0.982875
     1641.000000       0.982613
     1641.100000       0.982388
     1641.200000       0.982237
     1641.300000       0.982152
     1641.400000       0.982088
     1641.500000       0.982063
     1641.600000       0.982174
     1641.700000       0.982391
     1641.800000       0.982572
     1641.900000       0.982724
     1642.000000       0.982866
     1642.100000       0.983006
     1642.200000       0.983150
     1642.300000       0.983231
     1642.400000       0.983243
     1642.500000       0.983242
     1642.600000       0.983213
     1642.700000       0.982944
     1642.800000       0.982530
     1642.900000       0.982154
     1643.000000       0.981754
     1643.100000       0.981326
     1643.200000       0.980856
     1643.300000       0.980363
     1643.400000       0.979890
     1643.500000       0.979413
     1643.600000       0.978976
     1643.700000       0.978656
     1643.800000       0.978384
     1643.900000       0.978208
     1644.000000       0.978151
     1644.100000       0.978117
     1644.200000       0.978105
     1644.300000       0.978160
     1644.400000       0.978285
     1644.500000       0.978444
     1644.600000       0.978703
     1644.700000       0.978988
     1644.800000       0.979245
     1644.900000       0.979496
     1645.000000       0.979664
     1645.100000       0.979718
     1645.200000       0.979774
     1645.300000       0.979798
     1645.400000       0.979773
     1645.500000       0.979717
     1645.600000       0.979592
     1645.700000       0.979218
     1645.800000       0.978783
     1645.900000       0.978433
     1646.000000       0.978095
     1646.100000       0.977780
     1646.200000       0.977485
     1646.300000       0.977213
     1646.400000       0.976974
     1646.500000       0.976727
     1646.600000       0.976565
     1646.700000       0.976556
     1646.800000       0.976572
     1646.900000       0.976602
     1647.000000       0.976721
     1647.100000       0.976936
     1647.200000       0.977142
     1647.300000       0.977323
     1647.400000       0.977514
     1647.500000       0.977735
     1647.600000       0.978003
     1647.700000       0.978216
     1647.800000       0.978334
     1647.900000       0.978423
     1648.000000       0.978453
     1648.100000       0.978351
     1648.200000       0.978154
     1648.300000       0.977954
     1648.400000       0.977739
     1648.500000       0.977477
     1648.600000       0.977126
     1648.700000       0.976654
     1648.800000       0.976164
     1648.900000       0.975704
     1649.000000       0.975243
     1649.100000       0.974813
     1649.200000       0.974424
     1649.300000       0.974050
     1649.400000       0.973667
     1649.500000       0.973276
     1649.600000       0.972917
     1649.700000       0.972627
     1649.800000       0.972373
     1649.900000       0.972121
     1650.000000       0.971867
     1650.100000       0.971610
     1650.200000       0.971330
     1650.300000       0.971010
     1650.400000       0.970692
     1650.500000       0.970419
     1650.600000       0.970174
     1650.700000       0.969939
     1650.800000       0.969709
     1650.900000       0.969489
     1651.000000       0.969296
     1651.100000       0.969099
     1651.200000       0.968949
     1651.300000       0.968930
     1651.400000       0.968991
     1651.500000       0.969075
     1651.600000       0.969225
     1651.700000       0.969437
     1651.800000       0.969674
     1651.900000       0.969974
     1652.000000       0.970328
     1652.100000       0.970746
     1652.200000       0.971295
     1652.300000       0.971889
     1652.400000       0.972409
     1652.500000       0.972883
     1652.600000       0.973350
     1652.700000       0.973831
     1652.800000       0.974306
     1652.900000       0.974735
     1653.000000       0.975114
     1653.100000       0.975443
     1653.200000       0.975677
     1653.300000       0.975875
     1653.400000       0.976001
     1653.500000       0.976004
     1653.600000       0.975966
     1653.700000       0.975927
     1653.800000       0.975853
     1653.900000       0.975718
     1654.000000       0.975556
     1654.100000       0.975360
     1654.200000       0.975149
     1654.300000       0.974946
     1654.400000       0.974749
     1654.500000       0.974552
     1654.600000       0.974354
     1654.700000       0.974158
     1654.800000       0.973969
     1654.900000       0.973790
     1655.000000       0.973621
     1655.100000       0.973475
     1655.200000       0.973358
     1655.300000       0.973249
     1655.400000       0.973128
     1655.500000       0.972995
     1655.600000       0.972859
     1655.700000       0.972724
     1655.800000       0.972590
     1655.900000       0.972449
     1656.000000       0.972295
     1656.100000       0.972131
     1656.200000       0.971955
     1656.300000       0.971763
     1656.400000       0.971554
     1656.500000       0.971316
     1656.600000       0.971037
     1656.700000       0.970737
     1656.800000       0.970440
     1656.900000       0.970143
     1657.000000       0.969829
     1657.100000       0.969486
     1657.200000       0.969122
     1657.300000       0.968742
     1657.400000       0.968344
     1657.500000       0.967930
     1657.600000       0.967508
     1657.700000       0.967070
     1657.800000       0.966634
     1657.900000       0.966211
     1658.000000       0.965794
     1658.100000       0.965391
     1658.200000       0.965010
     1658.300000       0.964636
     1658.400000       0.964296
     1658.500000       0.963980
     1658.600000       0.963702
     1658.700000       0.963508
     1658.800000       0.963357
     1658.900000       0.963254
     1659.000000       0.963203
     1659.100000       0.963166
     1659.200000       0.963152
     1659.300000       0.963194
     1659.400000       0.963279
     1659.500000       0.963347
     1659.600000       0.963403
     1659.700000       0.963445
     1659.800000       0.963449
     1659.900000       0.963429
     1660.000000       0.963396
     1660.100000       0.963340
     1660.200000       0.963233
     1660.300000       0.963095
     1660.400000       0.962891
     1660.500000       0.962630
     1660.600000       0.962346
     1660.700000       0.962038
     1660.800000       0.961717
     1660.900000       0.961397
     1661.000000       0.961071
     1661.100000       0.960750
     1661.200000       0.960441
     1661.300000       0.960138
     1661.400000       0.959852
     1661.500000       0.959582
     1661.600000       0.959327
     1661.700000       0.959106
     1661.800000       0.958924
     1661.900000       0.958756
     1662.000000       0.958573
     1662.100000       0.958377
     1662.200000       0.958179
     1662.300000       0.957985
     1662.400000       0.957789
     1662.500000       0.957584
     1662.600000       0.957346
     1662.700000       0.957088
     1662.800000       0.956813
     1662.900000       0.956485
     1663.000000       0.956129
     1663.100000       0.955771
     1663.200000       0.955407
     1663.300000       0.955038
     1663.400000       0.954670
     1663.500000       0.954297
     1663.600000       0.953939
     1663.700000       0.953601
     1663.800000       0.953279
     1663.900000       0.953012
     1664.000000       0.952794
     1664.100000       0.952611
     1664.200000       0.952478
     1664.300000       0.952388
     1664.400000       0.952309
     1664.500000       0.952285
     1664.600000       0.952277
     1664.700000       0.952273
     1664.800000       0.952299
     1664.900000       0.952368
     1665.000000       0.952401
     1665.100000       0.952369
     1665.200000       0.952295
     1665.300000       0.952212
     1665.400000       0.952121
     1665.500000       0.952007
     1665.600000       0.951858
     1665.700000       0.951646
     1665.800000       0.951389
     1665.900000       0.951095
     1666.000000       0.950741
     1666.100000       0.950371
     1666.200000       0.950008
     1666.300000       0.949638
     1666.400000       0.949267
     1666.500000       0.948891
     1666.600000       0.948520
     1666.700000       0.948174
     1666.800000       0.947846
     1666.900000       0.947540
     1667.000000       0.947267
     1667.100000       0.947023
     1667.200000       0.946790
     1667.300000       0.946567
     1667.400000       0.946351
     1667.500000       0.946138
     1667.600000       0.945930
     1667.700000       0.945724
     1667.800000       0.945514
     1667.900000       0.945305
     1668.000000       0.945088
     1668.100000       0.944843
     1668.200000       0.944554
     1668.300000       0.944241
     1668.400000       0.943904
     1668.500000       0.943545
     1668.600000       0.943166
     1668.700000       0.942772
     1668.800000       0.942357
     1668.900000       0.941911
     1669.000000       0.941409
     1669.100000       0.940874
     1669.200000       0.940351
     1669.300000       0.939842
     1669.400000       0.939357
     1669.500000       0.938888
     1669.600000       0.938420
     1669.700000       0.937944
     1669.800000       0.937455
     1669.900000       0.936953
     1670.000000       0.936448
     1670.100000       0.935941
     1670.200000       0.935430
     1670.300000       0.934902
     1670.400000       0.934356
     1670.500000       0.933789
     1670.600000       0.933192
     1670.700000       0.932555
     1670.800000       0.931898
     1670.900000       0.931232
     1671.000000       0.930539
     1671.100000       0.929884
     1671.200000       0.929316
     1671.300000       0.928799
     1671.400000       0.928313
     1671.500000       0.927856
     1671.600000       0.927459
     1671.700000       0.927122
     1671.800000       0.926827
     1671.900000       0.926560
     1672.000000       0.926424
     1672.100000       0.926331
     1672.200000       0.926262
     1672.300000       0.926287
     1672.400000       0.926452
     1672.500000       0.926671
     1672.600000       0.926895
     1672.700000       0.927166
     1672.800000       0.927460
     1672.900000       0.927777
     1673.000000       0.928122
     1673.100000       0.928479
     1673.200000       0.928858
     1673.300000       0.929244
     1673.400000       0.929608
     1673.500000       0.929956
     1673.600000       0.930290
     1673.700000       0.930602
     1673.800000       0.930890
     1673.900000       0.931159
     1674.000000       0.931395
     1674.100000       0.931616
     1674.200000       0.931783
     1674.300000       0.931881
     1674.400000       0.931955
     1674.500000       0.932020
     1674.600000       0.932083
     1674.700000       0.932137
     1674.800000       0.932174
     1674.900000       0.932198
     1675.000000       0.932219
     1675.100000       0.932248
     1675.200000       0.932282
     1675.300000       0.932321
     1675.400000       0.932364
     1675.500000       0.932414
     1675.600000       0.932463
     1675.700000       0.932506
     1675.800000       0.932552
     1675.900000       0.932621
     1676.000000       0.932733
     1676.100000       0.932853
     1676.200000       0.932977
     1676.300000       0.933105
     1676.400000       0.933230
     1676.500000       0.933322
     1676.600000       0.933401
     1676.700000       0.933456
     1676.800000       0.933480
     1676.900000       0.933498
     1677.000000       0.933505
     1677.100000       0.933482
     1677.200000       0.933422
     1677.300000       0.933350
     1677.400000       0.933256
     1677.500000       0.933140
     1677.600000       0.933024
     1677.700000       0.932904
     1677.800000       0.932789
     1677.900000       0.932686
     1678.000000       0.932593
     1678.100000       0.932502
     1678.200000       0.932417
     1678.300000       0.932339
     1678.400000       0.932288
     1678.500000       0.932276
     1678.600000       0.932320
     1678.700000       0.932389
     1678.800000       0.932470
     1678.900000       0.932572
     1679.000000       0.932689
     1679.100000       0.932833
     1679.200000       0.932999
     1679.300000       0.933178
     1679.400000       0.933382
     1679.500000       0.933587
     1679.600000       0.933765
     1679.700000       0.933922
     1679.800000       0.934066
     1679.900000       0.934197
     1680.000000       0.934319
     1680.100000       0.934418
     1680.200000       0.934490
     1680.300000       0.934546
     1680.400000       0.934589
     1680.500000       0.934629
     1680.600000       0.934667
     1680.700000       0.934705
     1680.800000       0.934749
     1680.900000       0.934801
     1681.000000       0.934861
     1681.100000       0.934930
     1681.200000       0.935007
     1681.300000       0.935088
     1681.400000       0.935179
     1681.500000       0.935267
     1681.600000       0.935344
     1681.700000       0.935419
     1681.800000       0.935499
     1681.900000       0.935614
     1682.000000       0.935737
     1682.100000       0.935783
     1682.200000       0.935774
     1682.300000       0.935753
     1682.400000       0.935721
     1682.500000       0.935650
     1682.600000       0.935548
     1682.700000       0.935401
     1682.800000       0.935194
     1682.900000       0.934959
     1683.000000       0.934717
     1683.100000       0.934454
     1683.200000       0.934202
     1683.300000       0.933978
     1683.400000       0.933770
     1683.500000       0.933603
     1683.600000       0.933491
     1683.700000       0.933392
     1683.800000       0.933356
     1683.900000       0.933419
     1684.000000       0.933548
     1684.100000       0.933710
     1684.200000       0.933973
     1684.300000       0.934313
     1684.400000       0.934674
     1684.500000       0.935088
     1684.600000       0.935541
     1684.700000       0.936028
     1684.800000       0.936568
     1684.900000       0.937138
     1685.000000       0.937723
     1685.100000       0.938323
     1685.200000       0.938909
     1685.300000       0.939454
     1685.400000       0.939986
     1685.500000       0.940511
     1685.600000       0.941038
     1685.700000       0.941556
     1685.800000       0.942042
     1685.900000       0.942495
     1686.000000       0.942929
     1686.100000       0.943352
     1686.200000       0.943759
     1686.300000       0.944159
     1686.400000       0.944558
     1686.500000       0.944953
     1686.600000       0.945344
     1686.700000       0.945727
     1686.800000       0.946103
     1686.900000       0.946478
     1687.000000       0.946855
     1687.100000       0.947232
     1687.200000       0.947606
     1687.300000       0.947976
     1687.400000       0.948343
     1687.500000       0.948702
     1687.600000       0.949055
     1687.700000       0.949404
     1687.800000       0.949746
     1687.900000       0.950083
     1688.000000       0.950412
     1688.100000       0.950727
     1688.200000       0.951036
     1688.300000       0.951325
     1688.400000       0.951588
     1688.500000       0.951833
     1688.600000       0.952052
     1688.700000       0.952266
     1688.800000       0.952473
     1688.900000       0.952571
     1689.000000       0.952565
     1689.100000       0.952549
     1689.200000       0.952513
     1689.300000       0.952416
     1689.400000       0.952283
     1689.500000       0.952081
     1689.600000       0.951723
     1689.700000       0.951278
     1689.800000       0.950820
     1689.900000       0.950336
     1690.000000       0.949819
     1690.100000       0.949247
     1690.200000       0.948611
     1690.300000       0.947942
     1690.400000       0.947255
     1690.500000       0.946537
     1690.600000       0.945824
     1690.700000       0.945130
     1690.800000       0.944445
     1690.900000       0.943799
     1691.000000       0.943198
     1691.100000       0.942632
     1691.200000       0.942115
     1691.300000       0.941666
     1691.400000       0.941277
     1691.500000       0.940996
     1691.600000       0.940776
     1691.700000       0.940622
     1691.800000       0.940594
     1691.900000       0.940617
     1692.000000       0.940650
     1692.100000       0.940757
     1692.200000       0.941101
     1692.300000       0.941544
     1692.400000       0.941948
     1692.500000       0.942372
     1692.600000       0.942872
     1692.700000       0.943531
     1692.800000       0.944365
     1692.900000       0.945249
     1693.000000       0.946121
     1693.100000       0.947033
     1693.200000       0.948003
     1693.300000       0.949060
     1693.400000       0.950181
     1693.500000       0.951317
     1693.600000       0.952500
     1693.700000       0.953703
     1693.800000       0.954877
     1693.900000       0.956020
     1694.000000       0.957146
     1694.100000       0.958265
     1694.200000       0.959370
     1694.300000       0.960416
     1694.400000       0.961364
     1694.500000       0.962256
     1694.600000       0.963068
     1694.700000       0.963780
     1694.800000       0.964420
     1694.900000       0.965002
     1695.000000       0.965536
     1695.100000       0.966011
     1695.200000       0.966408
     1695.300000       0.966708
     1695.400000       0.966968
     1695.500000       0.967211
     1695.600000       0.967436
     1695.700000       0.967654
     1695.800000       0.967888
     1695.900000       0.968155
     1696.000000       0.968437
     1696.100000       0.968717
     1696.200000       0.968988
     1696.300000       0.969275
     1696.400000       0.969614
     1696.500000       0.970020
     1696.600000       0.970458
     1696.700000       0.970905
     1696.800000       0.971362
     1696.900000       0.971796
     1697.000000       0.972171
     1697.100000       0.972507
     1697.200000       0.972820
     1697.300000       0.973133
     1697.400000       0.973441
     1697.500000       0.973677
     1697.600000       0.973843
     1697.700000       0.973975
     1697.800000       0.974037
     1697.900000       0.974050
     1698.000000       0.974069
     1698.100000       0.974096
     1698.200000       0.974129
     1698.300000       0.974171
     1698.400000       0.974221
     1698.500000       0.974285
     1698.600000       0.974361
     1698.700000       0.974443
     1698.800000       0.974554
     1698.900000       0.974700
     1699.000000       0.974892
     1699.100000       0.975162
     1699.200000       0.975458
     1699.300000       0.975755
     1699.400000       0.976066
     1699.500000       0.976359
     1699.600000       0.976605
     1699.700000       0.976825
     1699.800000       0.977042
     1699.900000       0.977307
     1700.000000       0.977587
     1700.100000       0.977736
     1700.200000       0.977741
     1700.300000       0.977735
     1700.400000       0.977724
     1700.500000       0.977694
     1700.600000       0.977636
     1700.700000       0.977559
     1700.800000       0.977416
     1700.900000       0.977230
     1701.000000       0.977021
     1701.100000       0.976776
     1701.200000       0.976521
     1701.300000       0.976267
     1701.400000       0.976012
     1701.500000       0.975757
     1701.600000       0.975506
     1701.700000       0.975260
     1701.800000       0.975008
     1701.900000       0.974740
     1702.000000       0.974458
     1702.100000       0.974163
     1702.200000       0.973853
     1702.300000       0.973519
     1702.400000       0.973164
     1702.500000       0.972810
     1702.600000       0.972449
     1702.700000       0.972043
     1702.800000       0.971532
     1702.900000       0.970959
     1703.000000       0.970370
     1703.100000       0.969827
     1703.200000       0.969295
     1703.300000       0.968739
     1703.400000       0.968160
     1703.500000       0.967571
     1703.600000       0.966980
     1703.700000       0.966383
     1703.800000       0.965785
     1703.900000       0.965197
     1704.000000       0.964620
     1704.100000       0.964044
     1704.200000       0.963463
     1704.300000       0.962886
     1704.400000       0.962290
     1704.500000       0.961634
     1704.600000       0.960907
     1704.700000       0.960150
     1704.800000       0.959377
     1704.900000       0.958591
     1705.000000       0.957766
     1705.100000       0.956864
     1705.200000       0.955893
     1705.300000       0.954866
     1705.400000       0.953772
     1705.500000       0.952606
     1705.600000       0.951390
     1705.700000       0.950135
     1705.800000       0.948849
     1705.900000       0.947496
     1706.000000       0.946039
     1706.100000       0.944502
     1706.200000       0.942946
     1706.300000       0.941405
     1706.400000       0.939836
     1706.500000       0.938181
     1706.600000       0.936384
     1706.700000       0.934538
     1706.800000       0.932689
     1706.900000       0.930864
     1707.000000       0.929001
     1707.100000       0.927002
     1707.200000       0.924823
     1707.300000       0.922560
     1707.400000       0.920320
     1707.500000       0.918104
     1707.600000       0.915848
     1707.700000       0.913481
     1707.800000       0.910984
     1707.900000       0.908425
     1708.000000       0.905851
     1708.100000       0.903263
     1708.200000       0.900641
     1708.300000       0.897965
     1708.400000       0.895240
     1708.500000       0.892484
     1708.600000       0.889703
     1708.700000       0.886885
     1708.800000       0.884038
     1708.900000       0.881137
     1709.000000       0.878177
     1709.100000       0.875159
     1709.200000       0.872057
     1709.300000       0.868890
     1709.400000       0.865682
     1709.500000       0.862462
     1709.600000       0.859200
     1709.700000       0.855822
     1709.800000       0.852256
     1709.900000       0.848579
     1710.000000       0.844915
     1710.100000       0.840851
     1710.200000       0.836995
     1710.300000       0.834535
     1710.400000       0.833159
     1710.500000       0.832090
     1710.600000       0.831001
     1710.700000       0.829924
     1710.800000       0.828887
     1710.900000       0.827939
     1711.000000       0.827080
     1711.100000       0.826262
     1711.200000       0.825466
     1711.300000       0.824693
     1711.400000       0.823936
     1711.500000       0.823196
     1711.600000       0.822477
     1711.700000       0.821763
     1711.800000       0.821040
     1711.900000       0.820312
     1712.000000       0.819583
     1712.100000       0.818858
     1712.200000       0.818134
     1712.300000       0.817397
     1712.400000       0.816625
     1712.500000       0.815830
     1712.600000       0.815023
     1712.700000       0.814205
     1712.800000       0.813379
     1712.900000       0.812561
     1713.000000       0.811754
     1713.100000       0.810956
     1713.200000       0.810176
     1713.300000       0.809428
     1713.400000       0.808704
     1713.500000       0.807997
     1713.600000       0.807308
     1713.700000       0.806632
     1713.800000       0.805958
     1713.900000       0.805291
     1714.000000       0.804627
     1714.100000       0.803947
     1714.200000       0.803252
     1714.300000       0.802541
     1714.400000       0.801804
     1714.500000       0.801008
     1714.600000       0.800179
     1714.700000       0.799302
     1714.800000       0.798373
     1714.900000       0.797394
     1715.000000       0.796361
     1715.100000       0.795262
     1715.200000       0.794104
     1715.300000       0.792897
     1715.400000       0.791617
     1715.500000       0.790300
     1715.600000       0.788975
     1715.700000       0.787628
     1715.800000       0.786271
     1715.900000       0.784903
     1716.000000       0.783515
     1716.100000       0.782137
     1716.200000       0.780804
     1716.300000       0.779514
     1716.400000       0.778261
     1716.500000       0.777070
     1716.600000       0.775925
     1716.700000       0.774805
     1716.800000       0.773716
     1716.900000       0.772656
     1717.000000       0.771604
     1717.100000       0.770552
     1717.200000       0.769509
     1717.300000       0.768447
     1717.400000       0.767349
     1717.500000       0.766225
     1717.600000       0.765060
     1717.700000       0.763825
     1717.800000       0.762503
     1717.900000       0.761107
     1718.000000       0.759614
     1718.100000       0.758036
     1718.200000       0.756396
     1718.300000       0.754657
     1718.400000       0.752829
     1718.500000       0.750926
     1718.600000       0.748927
     1718.700000       0.746849
     1718.800000       0.744727
     1718.900000       0.742565
     1719.000000       0.740347
     1719.100000       0.738062
     1719.200000       0.735693
     1719.300000       0.733266
     1719.400000       0.730790
     1719.500000       0.728262
     1719.600000       0.725683
     1719.700000       0.723059
     1719.800000       0.720382
     1719.900000       0.717658
     1720.000000       0.714885
     1720.100000       0.712027
     1720.200000       0.709121
     1720.300000       0.706155
     1720.400000       0.703141
     1720.500000       0.700078
     1720.600000       0.696932
     1720.700000       0.693688
     1720.800000       0.690369
     1720.900000       0.686997
     1721.000000       0.683559
     1721.100000       0.680069
     1721.200000       0.676553
     1721.300000       0.672989
     1721.400000       0.669398
     1721.500000       0.665785
     1721.600000       0.662151
     1721.700000       0.658498
     1721.800000       0.654827
     1721.900000       0.651134
     1722.000000       0.647425
     1722.100000       0.643705
     1722.200000       0.639960
     1722.300000       0.636199
     1722.400000       0.632413
     1722.500000       0.628608
     1722.600000       0.624777
     1722.700000       0.620912
     1722.800000       0.617015
     1722.900000       0.613087
     1723.000000       0.609129
     1723.100000       0.605139
     1723.200000       0.601120
     1723.300000       0.597073
     1723.400000       0.592994
     1723.500000       0.588888
     1723.600000       0.584731
     1723.700000       0.580535
     1723.800000       0.576307
     1723.900000       0.572041
     1724.000000       0.567731
     1724.100000       0.563402
     1724.200000       0.559046
     1724.300000       0.554670
     1724.400000       0.550265
     1724.500000       0.545822
     1724.600000       0.541354
     1724.700000       0.536868
     1724.800000       0.532367
     1724.900000       0.527844
     1725.000000       0.523320
     1725.100000       0.518803
     1725.200000       0.514285
     1725.300000       0.509788
     1725.400000       0.505333
     1725.500000       0.500909
     1725.600000       0.496511
     1725.700000       0.492142
     1725.800000       0.487807
     1725.900000       0.483497
     1726.000000       0.479216
     1726.100000       0.474959
     1726.200000       0.470730
     1726.300000       0.466544
     1726.400000       0.462389
     1726.500000       0.458271
     1726.600000       0.454192
     1726.700000       0.450150
     1726.800000       0.446139
     1726.900000       0.442159
     1727.000000       0.438210
     1727.100000       0.434285
     1727.200000       0.430382
     1727.300000       0.426501
     1727.400000       0.422646
     1727.500000       0.418820
     1727.600000       0.415021
     1727.700000       0.411240
     1727.800000       0.407478
     1727.900000       0.403735
     1728.000000       0.400010
     1728.100000       0.396315
     1728.200000       0.392636
     1728.300000       0.388973
     1728.400000       0.385332
     1728.500000       0.381709
     1728.600000       0.378100
     1728.700000       0.374509
     1728.800000       0.370937
     1728.900000       0.367381
     1729.000000       0.363838
     1729.100000       0.360307
     1729.200000       0.356796
     1729.300000       0.353306
     1729.400000       0.349835
     1729.500000       0.346388
     1729.600000       0.342965
     1729.700000       0.339566
     1729.800000       0.336186
     1729.900000       0.332843
     1730.000000       0.329521
     1730.100000       0.326222
     1730.200000       0.322955
     1730.300000       0.319714
     1730.400000       0.316495
     1730.500000       0.313301
     1730.600000       0.310124
     1730.700000       0.306968
     1730.800000       0.303835
     1730.900000       0.300725
     1731.000000       0.297638
     1731.100000       0.294580
     1731.200000       0.291539
     1731.300000       0.288520
     1731.400000       0.285528
     1731.500000       0.282558
     1731.600000       0.279603
     1731.700000       0.276667
     1731.800000       0.273749
     1731.900000       0.270846
     1732.000000       0.267954
     1732.100000       0.265073
     1732.200000       0.262213
     1732.300000       0.259381
     1732.400000       0.256572
     1732.500000       0.253786
     1732.600000       0.251042
     1732.700000       0.248318
     1732.800000       0.245631
     1732.900000       0.242984
     1733.000000       0.240373
     1733.100000       0.237800
     1733.200000       0.235306
     1733.300000       0.232856
     1733.400000       0.230439
     1733.500000       0.228052
     1733.600000       0.225695
     1733.700000       0.223362
     1733.800000       0.221053
     1733.900000       0.218768
     1734.000000       0.216503
     1734.100000       0.214256
     1734.200000       0.212028
     1734.300000       0.209817
     1734.400000       0.207623
     1734.500000       0.205446
     1734.600000       0.203282
     1734.700000       0.201136
     1734.800000       0.199009
     1734.900000       0.196902
     1735.000000       0.194822
     1735.100000       0.192759
     1735.200000       0.190715
     1735.300000       0.188693
     1735.400000       0.186698
     1735.500000       0.184727
     1735.600000       0.182788
     1735.700000       0.180880
     1735.800000       0.179003
     1735.900000       0.177173
     1736.000000       0.175376
     1736.100000       0.173599
     1736.200000       0.171837
     1736.300000       0.170094
     1736.400000       0.168368
     1736.500000       0.166658
     1736.600000       0.164963
     1736.700000       0.163285
     1736.800000       0.161625
     1736.900000       0.159981
     1737.000000       0.158346
     1737.100000       0.156728
     1737.200000       0.155118
     1737.300000       0.153519
     1737.400000       0.151935
     1737.500000       0.150363
     1737.600000       0.148809
     1737.700000       0.147285
     1737.800000       0.145776
     1737.900000       0.144293
     1738.000000       0.142849
     1738.100000       0.141435
     1738.200000       0.140042
     1738.300000       0.138664
     1738.400000       0.137303
     1738.500000       0.135960
     1738.600000       0.134631
     1738.700000       0.133315
     1738.800000       0.132025
     1738.900000       0.130772
     1739.000000       0.129550
     1739.100000       0.128342
     1739.200000       0.127139
     1739.300000       0.125951
     1739.400000       0.124775
     1739.500000       0.123621
     1739.600000       0.122484
     1739.700000       0.121358
     1739.800000       0.120246
     1739.900000       0.119147
     1740.000000       0.118056
     1740.100000       0.116970
     1740.200000       0.115891
     1740.300000       0.114821
     1740.400000       0.113764
     1740.500000       0.112720
     1740.600000       0.111684
     1740.700000       0.110649
     1740.800000       0.109618
     1740.900000       0.108592
     1741.000000       0.107568
     1741.100000       0.106538
     1741.200000       0.105531
     1741.300000       0.104582
     1741.400000       0.103686
     1741.500000       0.102805
     1741.600000       0.101928
     1741.700000       0.101051
     1741.800000       0.100178
     1741.900000       0.099319
     1742.000000       0.098477
     1742.100000       0.097642
     1742.200000       0.096814
     1742.300000       0.095992
     1742.400000       0.095179
     1742.500000       0.094380
     1742.600000       0.093595
     1742.700000       0.092821
     1742.800000       0.092049
     1742.900000       0.091282
     1743.000000       0.090520
     1743.100000       0.089762
     1743.200000       0.089005
     1743.300000       0.088255
     1743.400000       0.087520
     1743.500000       0.086804
     1743.600000       0.086096
     1743.700000       0.085389
     1743.800000       0.084687
     1743.900000       0.083990
     1744.000000       0.083308
     1744.100000       0.082648
     1744.200000       0.081998
     1744.300000       0.081352
     1744.400000       0.080704
     1744.500000       0.080058
     1744.600000       0.079421
     1744.700000       0.078797
     1744.800000       0.078181
     1744.900000       0.077568
     1745.000000       0.076949
     1745.100000       0.076335
     1745.200000       0.075745
     1745.300000       0.075203
     1745.400000       0.074685
     1745.500000       0.074173
     1745.600000       0.073653
     1745.700000       0.073133
     1745.800000       0.072620
     1745.900000       0.072121
     1746.000000       0.071628
     1746.100000       0.071140
     1746.200000       0.070650
     1746.300000       0.070160
     1746.400000       0.069676
     1746.500000       0.069198
     1746.600000       0.068725
     1746.700000       0.068256
     1746.800000       0.067792
     1746.900000       0.067332
     1747.000000       0.066878
     1747.100000       0.066433
     1747.200000       0.065997
     1747.300000       0.065566
     1747.400000       0.065137
     1747.500000       0.064710
     1747.600000       0.064286
     1747.700000       0.063866
     1747.800000       0.063451
     1747.900000       0.063037
     1748.000000       0.062623
     1748.100000       0.062210
     1748.200000       0.061798
     1748.300000       0.061386
     1748.400000       0.060975
     1748.500000       0.060564
     1748.600000       0.060155
     1748.700000       0.059748
     1748.800000       0.059341
     1748.900000       0.058934
     1749.000000       0.058527
     1749.100000       0.058121
     1749.200000       0.057721
     1749.300000       0.057325
     1749.400000       0.056932
     1749.500000       0.056540
     1749.600000       0.056148
     1749.700000       0.055757
     1749.800000       0.055371
     1749.900000       0.054991
     1750.000000       0.054614
     1750.100000       0.054236
     1750.200000       0.053856
     1750.300000       0.053476
     1750.400000       0.053099
     1750.500000       0.052727
     1750.600000       0.052358
     1750.700000       0.051989
     1750.800000       0.051619
     1750.900000       0.051249
     1751.000000       0.050882
     1751.100000       0.050521
     1751.200000       0.050163
     1751.300000       0.049806
     1751.400000       0.049448
     1751.500000       0.049092
     1751.600000       0.048735
     1751.700000       0.048379
     1751.800000       0.048023
     1751.900000       0.047665
     1752.000000       0.047304
     1752.100000       0.046940
     1752.200000       0.046573
     1752.300000       0.046202
     1752.400000       0.045826
     1752.500000       0.045451
     1752.600000       0.045085
     1752.700000       0.044724
     1752.800000       0.044366
     1752.900000       0.044010
     1753.000000       0.043657
     1753.100000       0.043306
     1753.200000       0.042961
     1753.300000       0.042618
     1753.400000       0.042281
     1753.500000       0.041951
     1753.600000       0.041628
     1753.700000       0.041311
     1753.800000       0.040998
     1753.900000       0.040688
     1754.000000       0.040383
     1754.100000       0.040082
     1754.200000       0.039784
     1754.300000       0.039489
     1754.400000       0.039201
     1754.500000       0.038926
     1754.600000       0.038655
     1754.700000       0.038365
     1754.800000       0.038045
     1754.900000       0.037709
     1755.000000       0.037364
     1755.100000       0.037005
     1755.200000       0.036635
     1755.300000       0.036261
     1755.400000       0.035891
     1755.500000       0.035522
     1755.600000       0.035155
     1755.700000       0.034786
     1755.800000       0.034418
     1755.900000       0.034053
     1756.000000       0.033692
     1756.100000       0.033333
     1756.200000       0.032980
     1756.300000       0.032635
     1756.400000       0.032295
     1756.500000       0.031962
     1756.600000       0.031637
     1756.700000       0.031319
     1756.800000       0.031007
     1756.900000       0.030701
     1757.000000       0.030395
     1757.100000       0.030099
     1757.200000       0.029827
     1757.300000       0.029593
     1757.400000       0.029319
     1757.500000       0.028834
     1757.600000       0.027566
     1757.700000       0.026032
     1757.800000       0.025026
     1757.900000       0.024455
     1758.000000       0.024006
     1758.100000       0.023584
     1758.200000       0.023168
     1758.300000       0.022786
     1758.400000       0.022447
     1758.500000       0.022176
     1758.600000       0.021935
     1758.700000       0.021646
     1758.800000       0.021206
     1758.900000       0.020645
     1759.000000       0.020069
     1759.100000       0.019531
     1759.200000       0.019003
     1759.300000       0.018532
     1759.400000       0.018153
     1759.500000       0.017830
     1759.600000       0.017528
     1759.700000       0.017237
     1759.800000       0.016950
     1759.900000       0.016681
     1760.000000       0.016444
     1760.100000       0.016228
     1760.200000       0.016031
     1760.300000       0.015859
     1760.400000       0.015707
     1760.500000       0.015566
     1760.600000       0.015426
     1760.700000       0.015289
     1760.800000       0.015151
     1760.900000       0.015005
     1761.000000       0.014845
     1761.100000       0.014678
     1761.200000       0.014508
     1761.300000       0.014331
     1761.400000       0.014153
     1761.500000       0.013986
     1761.600000       0.013832
     1761.700000       0.013688
     1761.800000       0.013560
     1761.900000       0.013451
     1762.000000       0.013351
     1762.100000       0.013256
     1762.200000       0.013164
     1762.300000       0.013077
     1762.400000       0.012989
     1762.500000       0.012895
     1762.600000       0.012796
     1762.700000       0.012693
     1762.800000       0.012579
     1762.900000       0.012455
     1763.000000       0.012328
     1763.100000       0.012201
     1763.200000       0.012072
     1763.300000       0.011947
     1763.400000       0.011830
     1763.500000       0.011721
     1763.600000       0.011618
     1763.700000       0.011520
     1763.800000       0.011427
     1763.900000       0.011338
     1764.000000       0.011251
     1764.100000       0.011167
     1764.200000       0.011085
     1764.300000       0.011005
     1764.400000       0.010927
     1764.500000       0.010851
     1764.600000       0.010780
     1764.700000       0.010714
     1764.800000       0.010650
     1764.900000       0.010591
     1765.000000       0.010539
     1765.100000       0.010491
     1765.200000       0.010448
     1765.300000       0.010408
     1765.400000       0.010372
     1765.500000       0.010336
     1765.600000       0.010301
     1765.700000       0.010266
     1765.800000       0.010229
     1765.900000       0.010187
     1766.000000       0.010138
     1766.100000       0.010085
     1766.200000       0.010027
     1766.300000       0.009959
     1766.400000       0.009884
     1766.500000       0.009803
     1766.600000       0.009713
     1766.700000       0.009621
     1766.800000       0.009535
     1766.900000       0.009456
     1767.000000       0.009383
     1767.100000       0.009319
     1767.200000       0.009265
     1767.300000       0.009218
     1767.400000       0.009172
     1767.500000       0.009127
     1767.600000       0.009083
     1767.700000       0.009041
     1767.800000       0.008999
     1767.900000       0.008957
     1768.000000       0.008916
     1768.100000       0.008875
     1768.200000       0.008833
     1768.300000       0.008790
     1768.400000       0.008747
     1768.500000       0.008703
     1768.600000       0.008660
     1768.700000       0.008617
     1768.800000       0.008574
     1768.900000       0.008533
     1769.000000       0.008493
     1769.100000       0.008456
     1769.200000       0.008420
     1769.300000       0.008387
     1769.400000       0.008357
     1769.500000       0.008329
     1769.600000       0.008305
     1769.700000       0.008282
     1769.800000       0.008262
     1769.900000       0.008243
     1770.000000       0.008225
     1770.100000       0.008207
     1770.200000       0.008189
     1770.300000       0.008169
     1770.400000       0.008148
     1770.500000       0.008125
     1770.600000       0.008099
     1770.700000       0.008070
     1770.800000       0.008040
     1770.900000       0.008006
     1771.000000       0.007970
     1771.100000       0.007932
     1771.200000       0.007894
     1771.300000       0.007854
     1771.400000       0.007813
     1771.500000       0.007773
     1771.600000       0.007733
     1771.700000       0.007694
     1771.800000       0.007656
     1771.900000       0.007619
     1772.000000       0.007583
     1772.100000       0.007548
     1772.200000       0.007514
     1772.300000       0.007480
     1772.400000       0.007446
     1772.500000       0.007411
     1772.600000       0.007376
     1772.700000       0.007339
     1772.800000       0.007301
     1772.900000       0.007261
     1773.000000       0.007219
     1773.100000       0.007176
     1773.200000       0.007130
     1773.300000       0.007084
     1773.400000       0.007037
     1773.500000       0.006989
     1773.600000       0.006941
     1773.700000       0.006894
     1773.800000       0.006849
     1773.900000       0.006804
     1774.000000       0.006763
     1774.100000       0.006724
     1774.200000       0.006687
     1774.300000       0.006653
     1774.400000       0.006622
     1774.500000       0.006593
     1774.600000       0.006565
     1774.700000       0.006538
     1774.800000       0.006512
     1774.900000       0.006487
     1775.000000       0.006460
     1775.100000       0.006432
     1775.200000       0.006403
     1775.300000       0.006372
     1775.400000       0.006339
     1775.500000       0.006305
     1775.600000       0.006268
     1775.700000       0.006230
     1775.800000       0.006190
     1775.900000       0.006151
     1776.000000       0.006110
     1776.100000       0.006069
     1776.200000       0.006030
     1776.300000       0.005993
     1776.400000       0.005956
     1776.500000       0.005921
     1776.600000       0.005889
     1776.700000       0.005859
     1776.800000       0.005831
     1776.900000       0.005803
     1777.000000       0.005778
     1777.100000       0.005752
     1777.200000       0.005726
     1777.300000       0.005700
     1777.400000       0.005673
     1777.500000       0.005644
     1777.600000       0.005612
     1777.700000       0.005579
     1777.800000       0.005542
     1777.900000       0.005503
     1778.000000       0.005461
     1778.100000       0.005417
     1778.200000       0.005372
     1778.300000       0.005325
     1778.400000       0.005278
     1778.500000       0.005232
     1778.600000       0.005187
     1778.700000       0.005143
     1778.800000       0.005103
     1778.900000       0.005065
     1779.000000       0.005029
     1779.100000       0.004997
     1779.200000       0.004968
     1779.300000       0.004941
     1779.400000       0.004917
     1779.500000       0.004895
     1779.600000       0.004874
     1779.700000       0.004853
     1779.800000       0.004832
     1779.900000       0.004812
     1780.000000       0.004790
     1780.100000       0.004765
     1780.200000       0.004740
     1780.300000       0.004712
     1780.400000       0.004682
     1780.500000       0.004649
     1780.600000       0.004615
     1780.700000       0.004579
     1780.800000       0.004541
     1780.900000       0.004502
     1781.000000       0.004464
     1781.100000       0.004424
     1781.200000       0.004385
     1781.300000       0.004346
     1781.400000       0.004308
     1781.500000       0.004271
     1781.600000       0.004235
     1781.700000       0.004199
     1781.800000       0.004164
     1781.900000       0.004129
     1782.000000       0.004095
     1782.100000       0.004061
     1782.200000       0.004026
     1782.300000       0.003991
     1782.400000       0.003955
     1782.500000       0.003919
     1782.600000       0.003882
     1782.700000       0.003844
     1782.800000       0.003806
     1782.900000       0.003768
     1783.000000       0.003730
     1783.100000       0.003693
     1783.200000       0.003656
     1783.300000       0.003621
     1783.400000       0.003586
     1783.500000       0.003553
     1783.600000       0.003523
     1783.700000       0.003494
     1783.800000       0.003466
     1783.900000       0.003440
     1784.000000       0.003416
     1784.100000       0.003392
     1784.200000       0.003369
     1784.300000       0.003346
     1784.400000       0.003323
     1784.500000       0.003299
     1784.600000       0.003274
     1784.700000       0.003248
     1784.800000       0.003221
     1784.900000       0.003192
     1785.000000       0.003162
     1785.100000       0.003132
     1785.200000       0.003100
     1785.300000       0.003067
     1785.400000       0.003035
     1785.500000       0.003003
     1785.600000       0.002971
     1785.700000       0.002940
     1785.800000       0.002911
     1785.900000       0.002884
     1786.000000       0.002858
     1786.100000       0.002836
     1786.200000       0.002815
     1786.300000       0.002796
     1786.400000       0.002778
     1786.500000       0.002762
     1786.600000       0.002747
     1786.700000       0.002732
     1786.800000       0.002717
     1786.900000       0.002703
     1787.000000       0.002686
     1787.100000       0.002669
     1787.200000       0.002650
     1787.300000       0.002630
     1787.400000       0.002608
     1787.500000       0.002584
     1787.600000       0.002559
     1787.700000       0.002533
     1787.800000       0.002506
     1787.900000       0.002478
     1788.000000       0.002450
     1788.100000       0.002423
     1788.200000       0.002396
     1788.300000       0.002371
     1788.400000       0.002346
     1788.500000       0.002323
     1788.600000       0.002301
     1788.700000       0.002280
     1788.800000       0.002261
     1788.900000       0.002243
     1789.000000       0.002226
     1789.100000       0.002209
     1789.200000       0.002193
     1789.300000       0.002178
     1789.400000       0.002163
     1789.500000       0.002148
     1789.600000       0.002133
     1789.700000       0.002118
     1789.800000       0.002104
     1789.900000       0.002090
     1790.000000       0.002076
     1790.100000       0.002063
     1790.200000       0.002050
     1790.300000       0.002039
     1790.400000       0.002028
     1790.500000       0.002019
     1790.600000       0.002011
     1790.700000       0.002003
     1790.800000       0.001997
     1790.900000       0.001991
     1791.000000       0.001985
     1791.100000       0.001980
     1791.200000       0.001974
     1791.300000       0.001968
     1791.400000       0.001962
     1791.500000       0.001954
     1791.600000       0.001945
     1791.700000       0.001934
     1791.800000       0.001922
     1791.900000       0.001908
     1792.000000       0.001892
     1792.100000       0.001876
     1792.200000       0.001859
     1792.300000       0.001840
     1792.400000       0.001822
     1792.500000       0.001803
     1792.600000       0.001785
     1792.700000       0.001767
     1792.800000       0.001751
     1792.900000       0.001736
     1793.000000       0.001722
     1793.100000       0.001709
     1793.200000       0.001699
     1793.300000       0.001688
     1793.400000       0.001679
     1793.500000       0.001670
     1793.600000       0.001662
     1793.700000       0.001654
     1793.800000       0.001644
     1793.900000       0.001634
     1794.000000       0.001623
     1794.100000       0.001610
     1794.200000       0.001596
     1794.300000       0.001580
     1794.400000       0.001562
     1794.500000       0.001543
     1794.600000       0.001523
     1794.700000       0.001503
     1794.800000       0.001482
     1794.900000       0.001461
     1795.000000       0.001440
     1795.100000       0.001422
     1795.200000       0.001404
     1795.300000       0.001387
     1795.400000       0.001373
     1795.500000       0.001361
     1795.600000       0.001351
     1795.700000       0.001344
     1795.800000       0.001338
     1795.900000       0.001334
     1796.000000       0.001332
     1796.100000       0.001331
     1796.200000       0.001330
     1796.300000       0.001330
     1796.400000       0.001329
     1796.500000       0.001329
     1796.600000       0.001329
     1796.700000       0.001328
     1796.800000       0.001326
     1796.900000       0.001324
     1797.000000       0.001322
     1797.100000       0.001320
     1797.200000       0.001318
     1797.300000       0.001316
     1797.400000       0.001315
     1797.500000       0.001314
     1797.600000       0.001313
     1797.700000       0.001314
     1797.800000       0.001315
     1797.900000       0.001317
     1798.000000       0.001319
     1798.100000       0.001322
     1798.200000       0.001325
     1798.300000       0.001327
     1798.400000       0.001330
     1798.500000       0.001332
     1798.600000       0.001332
     1798.700000       0.001332
     1798.800000       0.001330
     1798.900000       0.001328
     1799.000000       0.001324
     1799.100000       0.001318
     1799.200000       0.001312
     1799.300000       0.001304
     1799.400000       0.001296
     1799.500000       0.001287
     1799.600000       0.001278
     1799.700000       0.001269
     1799.800000       0.001261
     1799.900000       0.001253
     1800.000000       0.001246
     1800.100000       0.001240
     1800.200000       0.001235
     1800.300000       0.001230
     1800.400000       0.001227
     1800.500000       0.001223
     1800.600000       0.001220
     1800.700000       0.001217
     1800.800000       0.001215
     1800.900000       0.001211
     1801.000000       0.001207
     1801.100000       0.001202
     1801.200000       0.001196
     1801.300000       0.001190
     1801.400000       0.001182
     1801.500000       0.001174
     1801.600000       0.001165
     1801.700000       0.001156
     1801.800000       0.001148
     1801.900000       0.001139
     1802.000000       0.001131
     1802.100000       0.001125
     1802.200000       0.001121
     1802.300000       0.001118
     1802.400000       0.001115
     1802.500000       0.001115
     1802.600000       0.001118
     1802.700000       0.001123
     1802.800000       0.001127
     1802.900000       0.001134
     1803.000000       0.001143
     1803.100000       0.001152
     1803.200000       0.001161
     1803.300000       0.001170
     1803.400000       0.001179
     1803.500000       0.001187
     1803.600000       0.001194
     1803.700000       0.001201
     1803.800000       0.001204
     1803.900000       0.001207
     1804.000000       0.001209
     1804.100000       0.001209
     1804.200000       0.001208
     1804.300000       0.001206
     1804.400000       0.001203
     1804.500000       0.001200
     1804.600000       0.001196
     1804.700000       0.001192
     1804.800000       0.001189
     1804.900000       0.001185
     1805.000000       0.001182
     1805.100000       0.001180
     1805.200000       0.001178
     1805.300000       0.001176
     1805.400000       0.001174
     1805.500000       0.001173
     1805.600000       0.001171
     1805.700000       0.001169
     1805.800000       0.001167
     1805.900000       0.001164
     1806.000000       0.001162
     1806.100000       0.001158
     1806.200000       0.001155
     1806.300000       0.001150
     1806.400000       0.001146
     1806.500000       0.001141
     1806.600000       0.001135
     1806.700000       0.001130
     1806.800000       0.001125
     1806.900000       0.001120
     1807.000000       0.001115
     1807.100000       0.001110
     1807.200000       0.001105
     1807.300000       0.001101
     1807.400000       0.001097
     1807.500000       0.001093
     1807.600000       0.001089
     1807.700000       0.001085
     1807.800000       0.001080
     1807.900000       0.001076
     1808.000000       0.001071
     1808.100000       0.001065
     1808.200000       0.001059
     1808.300000       0.001052
     1808.400000       0.001045
     1808.500000       0.001038
     1808.600000       0.001030
     1808.700000       0.001023
     1808.800000       0.001015
     1808.900000       0.001008
     1809.000000       0.001001
     1809.100000       0.000994
