72,   72, MVIRI VIS channel from srf_MET7_2006213_2006214_1801-Release_S10EE_10.dat
Number of data points:
793
Wavenumber (cm-1)   Filter response
     8442.380800       0.000000
     8449.514200       0.000000
     8456.659600       0.000004
     8463.817200       0.000055
     8470.986900       0.000163
     8478.168700       0.000327
     8485.362700       0.000544
     8492.569000       0.000813
     8499.787500       0.001133
     8507.018300       0.001501
     8514.261400       0.001918
     8521.516800       0.002381
     8528.784600       0.002889
     8536.064900       0.003441
     8543.357500       0.004035
     8550.662700       0.004671
     8557.980300       0.005347
     8565.310500       0.006062
     8572.653200       0.006816
     8580.008600       0.007606
     8587.376600       0.008433
     8594.757200       0.009295
     8602.150500       0.010191
     8609.556600       0.011121
     8616.975400       0.012083
     8624.407100       0.013078
     8631.851500       0.014103
     8639.308900       0.015159
     8646.779100       0.016245
     8654.262200       0.017360
     8661.758300       0.018503
     8669.267400       0.019675
     8676.789600       0.020873
     8684.324800       0.022099
     8691.873100       0.023351
     8699.434500       0.024629
     8707.009100       0.025932
     8714.596900       0.027260
     8722.198000       0.028612
     8729.812300       0.029989
     8737.439900       0.031390
     8745.080900       0.032815
     8752.735200       0.034262
     8760.403000       0.035732
     8768.084200       0.037226
     8775.778900       0.038741
     8783.487000       0.040279
     8791.208800       0.041838
     8798.944100       0.043419
     8806.693100       0.045022
     8814.455700       0.046647
     8822.232000       0.048292
     8830.022100       0.049959
     8837.825900       0.051647
     8845.643500       0.053356
     8853.475000       0.055085
     8861.320300       0.056835
     8869.179600       0.058606
     8877.052800       0.060397
     8884.940000       0.062210
     8892.841300       0.064042
     8900.756600       0.065895
     8908.686000       0.067769
     8916.629500       0.069663
     8924.587200       0.071578
     8932.559200       0.073512
     8940.545400       0.075468
     8948.545900       0.077444
     8956.560700       0.079441
     8964.589900       0.081459
     8972.633500       0.083497
     8980.691500       0.085555
     8988.764000       0.087635
     8996.851100       0.089735
     9004.952700       0.091857
     9013.068900       0.093999
     9021.199800       0.096162
     9029.345400       0.098347
     9037.505600       0.100552
     9045.680700       0.102780
     9053.870500       0.105028
     9062.075200       0.107298
     9070.294800       0.109589
     9078.529300       0.111902
     9086.778700       0.114237
     9095.043200       0.116593
     9103.322700       0.118972
     9111.617300       0.121372
     9119.927000       0.123795
     9128.251900       0.126239
     9136.592100       0.128706
     9144.947400       0.131196
     9153.318100       0.133707
     9161.704100       0.136242
     9170.105500       0.138799
     9178.522300       0.141378
     9186.954500       0.143981
     9195.402300       0.146606
     9203.865600       0.149254
     9212.344500       0.151925
     9220.839100       0.154620
     9229.349300       0.157337
     9237.875300       0.160078
     9246.417000       0.162841
     9254.974500       0.165629
     9263.547900       0.168439
     9272.137200       0.171273
     9280.742500       0.174131
     9289.363700       0.177012
     9298.000900       0.179916
     9306.654300       0.182845
     9315.323700       0.185796
     9324.009300       0.188772
     9332.711200       0.191771
     9341.429200       0.194793
     9350.163600       0.197840
     9358.914400       0.200910
     9367.681500       0.204004
     9376.465100       0.207121
     9385.265100       0.210262
     9394.081700       0.213427
     9402.914900       0.216615
     9411.764700       0.219827
     9420.631200       0.223062
     9429.514400       0.226321
     9438.414300       0.229603
     9447.331100       0.232909
     9456.264800       0.236238
     9465.215300       0.239590
     9474.182900       0.242965
     9483.167400       0.246364
     9492.169000       0.249785
     9501.187600       0.253230
     9510.223500       0.256697
     9519.276500       0.260187
     9528.346800       0.263700
     9537.434400       0.267235
     9546.539400       0.270792
     9555.661700       0.274372
     9564.801500       0.277974
     9573.958800       0.281598
     9583.133700       0.285244
     9592.326100       0.288911
     9601.536200       0.292600
     9610.764100       0.296309
     9620.009600       0.300041
     9629.273000       0.303793
     9638.554200       0.307566
     9647.853400       0.311360
     9657.170400       0.315173
     9666.505600       0.319008
     9675.858700       0.322862
     9685.230000       0.326736
     9694.619500       0.330629
     9704.027200       0.334542
     9713.453100       0.338473
     9722.897400       0.342424
     9732.360100       0.346393
     9741.841200       0.350381
     9751.340800       0.354386
     9760.859000       0.358409
     9770.395700       0.362450
     9779.951100       0.366508
     9789.525200       0.370583
     9799.118100       0.374674
     9808.729800       0.378782
     9818.360300       0.382906
     9828.009800       0.387046
     9837.678300       0.391201
     9847.365800       0.395371
     9857.072400       0.399556
     9866.798200       0.403756
     9876.543200       0.407969
     9886.307500       0.412196
     9896.091000       0.416437
     9905.894000       0.420691
     9915.716400       0.424958
     9925.558300       0.429237
     9935.419800       0.433528
     9945.300800       0.437831
     9955.201600       0.442144
     9965.122100       0.446470
     9975.062300       0.450805
     9985.022500       0.455150
     9995.002500       0.459506
    10005.002500       0.463871
    10015.022500       0.468244
    10025.062700       0.472626
    10035.122900       0.477017
    10045.203400       0.481415
    10055.304200       0.485820
    10065.425300       0.490233
    10075.566800       0.494651
    10085.728700       0.499076
    10095.911200       0.503507
    10106.114200       0.507943
    10116.337900       0.512384
    10126.582300       0.516829
    10136.847400       0.521278
    10147.133400       0.525730
    10157.440300       0.530186
    10167.768200       0.534644
    10178.117000       0.539104
    10188.487000       0.543566
    10198.878100       0.548029
    10209.290500       0.552493
    10219.724100       0.556958
    10230.179000       0.561422
    10240.655400       0.565886
    10251.153300       0.570349
    10261.672700       0.574810
    10272.213700       0.579270
    10282.776300       0.583727
    10293.360800       0.588181
    10303.967000       0.592632
    10314.595200       0.597079
    10325.245200       0.601521
    10335.917300       0.605960
    10346.611500       0.610392
    10357.327800       0.614819
    10368.066400       0.619240
    10378.827200       0.623655
    10389.610400       0.628062
    10400.416000       0.632462
    10411.244100       0.636854
    10422.094800       0.641237
    10432.968200       0.645612
    10443.864200       0.649977
    10454.783100       0.654332
    10465.724800       0.658677
    10476.689400       0.663011
    10487.677000       0.667333
    10498.687700       0.671644
    10509.721500       0.675943
    10520.778500       0.680229
    10531.858900       0.684502
    10542.962600       0.688761
    10554.089700       0.693007
    10565.240400       0.697237
    10576.414600       0.701453
    10587.612500       0.705653
    10598.834100       0.709838
    10610.079600       0.714006
    10621.348900       0.718158
    10632.642200       0.722292
    10643.959600       0.726409
    10655.301000       0.730507
    10666.666700       0.734587
    10678.056600       0.738648
    10689.470900       0.742689
    10700.909600       0.746711
    10712.372800       0.750713
    10723.860600       0.754693
    10735.373100       0.758653
    10746.910300       0.762591
    10758.472300       0.766508
    10770.059200       0.770401
    10781.671200       0.774272
    10793.308100       0.778120
    10804.970300       0.781945
    10816.657700       0.785745
    10828.370300       0.789521
    10840.108400       0.793273
    10851.871900       0.796999
    10863.661100       0.800700
    10875.475800       0.804374
    10887.316300       0.808023
    10899.182600       0.811645
    10911.074700       0.815240
    10922.992900       0.818807
    10934.937100       0.822347
    10946.907500       0.825858
    10958.904100       0.829342
    10970.927000       0.832796
    10982.976400       0.836222
    10995.052200       0.839618
    11007.154700       0.842984
    11019.283700       0.846320
    11031.439600       0.849626
    11043.622300       0.852901
    11055.832000       0.856145
    11068.068600       0.859358
    11080.332400       0.862539
    11092.623400       0.865688
    11104.941700       0.868805
    11117.287400       0.871889
    11129.660500       0.874941
    11142.061300       0.877960
    11154.489700       0.880945
    11166.945800       0.883897
    11179.429800       0.886815
    11191.941800       0.889699
    11204.481800       0.892549
    11217.049900       0.895364
    11229.646300       0.898144
    11242.270900       0.900890
    11254.924000       0.903600
    11267.605600       0.906275
    11280.315800       0.908914
    11293.054800       0.911518
    11305.822500       0.914085
    11318.619100       0.916616
    11331.444800       0.919111
    11344.299500       0.921569
    11357.183400       0.923991
    11370.096600       0.926376
    11383.039300       0.928723
    11396.011400       0.931034
    11409.013100       0.933307
    11422.044500       0.935543
    11435.105800       0.937741
    11448.196900       0.939901
    11461.318100       0.942024
    11474.469300       0.944109
    11487.650800       0.946155
    11500.862600       0.948164
    11514.104800       0.950134
    11527.377500       0.952066
    11540.680900       0.953960
    11554.015000       0.955815
    11567.380000       0.957632
    11580.775900       0.959410
    11594.202900       0.961150
    11607.661100       0.962851
    11621.150500       0.964513
    11634.671300       0.966136
    11648.223600       0.967721
    11661.807600       0.969267
    11675.423200       0.970774
    11689.070700       0.972243
    11702.750100       0.973672
    11716.461600       0.975063
    11730.205300       0.976415
    11743.981200       0.977729
    11757.789500       0.979004
    11771.630400       0.980240
    11785.503800       0.981438
    11799.410000       0.982597
    11813.349100       0.983717
    11827.321100       0.984799
    11841.326200       0.985843
    11855.364600       0.986849
    11869.436200       0.987816
    11883.541300       0.988746
    11897.680000       0.989637
    11911.852300       0.990490
    11926.058400       0.991306
    11940.298500       0.992084
    11954.572600       0.992825
    11968.880900       0.993528
    11983.223500       0.994193
    11997.600500       0.994822
    12012.012000       0.995414
    12026.458200       0.995969
    12040.939200       0.996487
    12055.455100       0.996969
    12070.006000       0.997414
    12084.592100       0.997824
    12099.213600       0.998197
    12113.870400       0.998535
    12128.562800       0.998837
    12143.290800       0.999104
    12158.054700       0.999335
    12172.854500       0.999532
    12187.690400       0.999694
    12202.562500       0.999822
    12217.471000       0.999915
    12232.415900       0.999974
    12247.397400       1.000000
    12262.415700       0.999992
    12277.470800       0.999951
    12292.563000       0.999877
    12307.692300       0.999770
    12322.858900       0.999631
    12338.062900       0.999460
    12353.304500       0.999256
    12368.583800       0.999022
    12383.900900       0.998756
    12399.256000       0.998459
    12414.649300       0.998131
    12430.080800       0.997773
    12445.550700       0.997385
    12461.059200       0.996967
    12476.606400       0.996519
    12492.192400       0.996043
    12507.817400       0.995538
    12523.481500       0.995004
    12539.185000       0.994443
    12554.927800       0.993853
    12570.710200       0.993236
    12586.532400       0.992593
    12602.394500       0.991922
    12618.296500       0.991225
    12634.238800       0.990503
    12650.221400       0.989754
    12666.244500       0.988981
    12682.308200       0.988183
    12698.412700       0.987360
    12714.558200       0.986513
    12730.744700       0.985643
    12746.972600       0.984749
    12763.241900       0.983833
    12779.552700       0.982894
    12795.905300       0.981933
    12812.299800       0.980950
    12828.736400       0.979946
    12845.215200       0.978921
    12861.736300       0.977876
    12878.300100       0.976811
    12894.906500       0.975726
    12911.555800       0.974622
    12928.248200       0.973499
    12944.983800       0.972358
    12961.762800       0.971199
    12978.585300       0.970023
    12995.451600       0.968829
    13012.361700       0.967619
    13029.316000       0.966393
    13046.314400       0.965151
    13063.357300       0.963894
    13080.444700       0.962622
    13097.576900       0.961335
    13114.754100       0.960035
    13131.976400       0.958721
    13149.243900       0.957394
    13166.556900       0.956054
    13183.915600       0.954702
    13201.320100       0.953339
    13218.770700       0.951964
    13236.267400       0.950579
    13253.810500       0.949183
    13271.400100       0.947777
    13289.036500       0.946361
    13306.719900       0.944937
    13324.450400       0.943504
    13342.228200       0.942063
    13360.053400       0.940614
    13377.926400       0.939159
    13395.847300       0.937696
    13413.816200       0.936227
    13431.833400       0.934752
    13449.899100       0.933272
    13468.013500       0.931787
    13486.176700       0.930297
    13504.388900       0.928803
    13522.650400       0.927306
    13540.961400       0.925806
    13559.322000       0.924302
    13577.732500       0.922797
    13596.193100       0.921290
    13614.703900       0.919781
    13633.265200       0.918271
    13651.877100       0.916761
    13670.540000       0.915251
    13689.253900       0.913741
    13708.019200       0.912231
    13726.836000       0.910723
    13745.704500       0.909217
    13764.624900       0.907712
    13783.597500       0.906211
    13802.622500       0.904712
    13821.700100       0.903216
    13840.830400       0.901724
    13860.013900       0.900236
    13879.250500       0.898752
    13898.540700       0.897274
    13917.884500       0.895800
    13937.282200       0.894333
    13956.734100       0.892871
    13976.240400       0.891416
    13995.801300       0.889968
    14015.417000       0.888528
    14035.087700       0.887094
    14054.813800       0.885669
    14074.595400       0.884252
    14094.432700       0.882844
    14114.326000       0.881445
    14134.275600       0.880055
    14154.281700       0.878676
    14174.344400       0.877306
    14194.464200       0.875947
    14214.641100       0.874598
    14234.875400       0.873261
    14255.167500       0.871935
    14275.517500       0.870621
    14295.925700       0.869319
    14316.392300       0.868029
    14336.917600       0.866753
    14357.501800       0.865489
    14378.145200       0.864238
    14398.848100       0.863001
    14419.610700       0.861778
    14440.433200       0.860569
    14461.316000       0.859375
    14482.259200       0.858195
    14503.263200       0.857030
    14524.328200       0.855880
    14545.454500       0.854746
    14566.642400       0.853627
    14587.892000       0.852524
    14609.203800       0.851437
    14630.577900       0.850367
    14652.014700       0.849313
    14673.514300       0.848276
    14695.077100       0.847256
    14716.703500       0.846253
    14738.393500       0.845267
    14760.147600       0.844299
    14781.966000       0.843348
    14803.849000       0.842415
    14825.796900       0.841500
    14847.809900       0.840604
    14869.888500       0.839725
    14892.032800       0.838865
    14914.243100       0.838023
    14936.519800       0.837200
    14958.863100       0.836395
    14981.273400       0.835610
    15003.750900       0.834843
    15026.296000       0.834095
    15048.909000       0.833366
    15071.590100       0.832657
    15094.339600       0.831966
    15117.158000       0.831295
    15140.045400       0.830643
    15163.002300       0.830010
    15186.028900       0.829397
    15209.125500       0.828803
    15232.292500       0.828228
    15255.530100       0.827672
    15278.838800       0.827136
    15302.218800       0.826619
    15325.670500       0.826121
    15349.194200       0.825643
    15372.790200       0.825183
    15396.458800       0.824743
    15420.200500       0.824322
    15444.015400       0.823919
    15467.904100       0.823536
    15491.866800       0.823171
    15515.903800       0.822825
    15540.015500       0.822498
    15564.202300       0.822189
    15588.464500       0.821898
    15612.802500       0.821626
    15637.216600       0.821371
    15661.707100       0.821134
    15686.274500       0.820915
    15710.919100       0.820714
    15735.641200       0.820530
    15760.441300       0.820363
    15785.319700       0.820213
    15810.276700       0.820079
    15835.312700       0.819962
    15860.428200       0.819862
    15885.623500       0.819777
    15910.899000       0.819708
    15936.255000       0.819655
    15961.691900       0.819617
    15987.210200       0.819593
    16012.810200       0.819585
    16038.492400       0.819591
    16064.257000       0.819610
    16090.104600       0.819644
    16116.035500       0.819691
    16142.050000       0.819751
    16168.148700       0.819823
    16194.332000       0.819908
    16220.600200       0.820005
    16246.953700       0.820114
    16273.393000       0.820233
    16299.918500       0.820364
    16326.530600       0.820505
    16353.229800       0.820656
    16380.016400       0.820817
    16406.890900       0.820986
    16433.853700       0.821165
    16460.905300       0.821352
    16488.046200       0.821546
    16515.276600       0.821748
    16542.597200       0.821957
    16570.008300       0.822172
    16597.510400       0.822393
    16625.103900       0.822620
    16652.789300       0.822851
    16680.567100       0.823087
    16708.437800       0.823327
    16736.401700       0.823570
    16764.459300       0.823815
    16792.611300       0.824063
    16820.857900       0.824313
    16849.199700       0.824563
    16877.637100       0.824815
    16906.170800       0.825066
    16934.801000       0.825316
    16963.528400       0.825565
    16992.353400       0.825813
    17021.276600       0.826058
    17050.298400       0.826300
    17079.419300       0.826538
    17108.639900       0.826771
    17137.960600       0.827000
    17167.382000       0.827223
    17196.904600       0.827440
    17226.528900       0.827650
    17256.255400       0.827852
    17286.084700       0.828046
    17316.017300       0.828231
    17346.053800       0.828406
    17376.194600       0.828571
    17406.440400       0.828725
    17436.791600       0.828867
    17467.248900       0.828996
    17497.812800       0.829112
    17528.483800       0.829215
    17559.262500       0.829303
    17590.149500       0.829375
    17621.145400       0.829431
    17652.250700       0.829471
    17683.466000       0.829492
    17714.791900       0.829496
    17746.228900       0.829480
    17777.777800       0.829445
    17809.439000       0.829388
    17841.213200       0.829311
    17873.101000       0.829211
    17905.103000       0.829088
    17937.219700       0.828942
    17969.451900       0.828771
    18001.800200       0.828575
    18034.265100       0.828353
    18066.847300       0.828104
    18099.547500       0.827827
    18132.366300       0.827522
    18165.304300       0.827188
    18198.362100       0.826824
    18231.540600       0.826429
    18264.840200       0.826002
    18298.261700       0.825543
    18331.805700       0.825051
    18365.472900       0.824525
    18399.264000       0.823964
    18433.179700       0.823367
    18467.220700       0.822735
    18501.387600       0.822065
    18535.681200       0.821357
    18570.102100       0.820610
    18604.651200       0.819824
    18639.329000       0.818998
    18674.136300       0.818130
    18709.073900       0.817221
    18744.142500       0.816269
    18779.342700       0.815274
    18814.675400       0.814234
    18850.141400       0.813150
    18885.741300       0.812019
    18921.475900       0.810843
    18957.346000       0.809619
    18993.352300       0.808347
    19029.495700       0.807026
    19065.776900       0.805656
    19102.196800       0.804235
    19138.756000       0.802764
    19175.455400       0.801241
    19212.295900       0.799665
    19249.278200       0.798037
    19286.403100       0.796354
    19323.671500       0.794617
    19361.084200       0.792825
    19398.642100       0.790977
    19436.346000       0.789073
    19474.196700       0.787111
    19512.195100       0.785091
    19550.342100       0.783013
    19588.638600       0.780876
    19627.085400       0.778679
    19665.683400       0.776422
    19704.433500       0.774104
    19743.336600       0.771724
    19782.393700       0.769282
    19821.605600       0.766777
    19860.973200       0.764209
    19900.497500       0.761578
    19940.179500       0.758882
    19980.020000       0.756121
    20020.020000       0.753295
    20060.180500       0.750403
    20100.502500       0.747445
    20140.986900       0.744420
    20181.634700       0.741329
    20222.446900       0.738169
    20263.424500       0.734942
    20304.568500       0.731646
    20345.880000       0.728282
    20387.359800       0.724848
    20429.009200       0.721346
    20470.829100       0.717773
    20512.820500       0.714131
    20554.984600       0.710418
    20597.322300       0.706635
    20639.834900       0.702781
    20682.523300       0.698856
    20725.388600       0.694861
    20768.432000       0.690794
    20811.654500       0.686655
    20855.057400       0.682445
    20898.641600       0.678163
    20942.408400       0.673810
    20986.358900       0.669385
    21030.494200       0.664888
    21074.815600       0.660320
    21119.324200       0.655680
    21164.021200       0.650968
    21208.907700       0.646185
    21253.985100       0.641330
    21299.254500       0.636404
    21344.717200       0.631407
    21390.374300       0.626339
    21436.227200       0.621200
    21482.277100       0.615991
    21528.525300       0.610712
    21574.973000       0.605363
    21621.621600       0.599944
    21668.472400       0.594457
    21715.526600       0.588901
    21762.785600       0.583277
    21810.250800       0.577585
    21857.923500       0.571826
    21905.805000       0.566000
    21953.896800       0.560109
    22002.200200       0.554152
    22050.716600       0.548131
    22099.447500       0.542045
    22148.394200       0.535897
    22197.558300       0.529686
    22246.941000       0.523413
    22296.544000       0.517080
    22346.368700       0.510687
    22396.416600       0.504235
    22446.689100       0.497725
    22497.187900       0.491158
    22547.914300       0.484536
    22598.870100       0.477859
    22650.056600       0.471128
    22701.475600       0.464346
    22753.128600       0.457512
    22805.017100       0.450629
    22857.142900       0.443697
    22909.507400       0.436718
    22962.112500       0.429694
    23014.959700       0.422626
    23068.050700       0.415515
    23121.387300       0.408364
    23174.971000       0.401173
    23228.803700       0.393945
    23282.887100       0.386682
    23337.222900       0.379384
    23391.812900       0.372054
    23446.658900       0.364693
    23501.762600       0.357305
    23557.126000       0.349891
    23612.750900       0.342452
    23668.639100       0.334991
    23724.792400       0.327511
    23781.212800       0.320013
    23837.902300       0.312499
    23894.862600       0.304973
    23952.095800       0.297437
    24009.603800       0.289892
    24067.388700       0.282342
    24125.452400       0.274790
    24183.796900       0.267237
    24242.424200       0.259687
    24301.336600       0.252142
    24360.535900       0.244605
    24420.024400       0.237080
    24479.804200       0.229569
    24539.877300       0.222076
    24600.246000       0.214603
    24660.912500       0.207153
    24721.878900       0.199731
    24783.147500       0.192338
    24844.720500       0.184980
    24906.600200       0.177659
    24968.789000       0.170378
    25031.289100       0.163143
    25094.102900       0.155955
    25157.232700       0.148819
    25220.681000       0.141738
    25284.450100       0.134718
    25348.542500       0.127761
    25412.960600       0.120873
    25477.707000       0.114056
