103,   103, MVIRI VIS channel from srf_MET5_2004033_2004034_1801-Release_S10EL_10.dat
Number of data points:
806
Wavenumber (cm-1)   Filter response
     8350.730700       0.000000
     8357.710000       0.000000
     8364.701000       0.000000
     8371.703600       0.000002
     8378.718100       0.000004
     8385.744200       0.000009
     8392.782200       0.000017
     8399.832000       0.000028
     8406.893700       0.000042
     8413.967200       0.000061
     8421.052600       0.000085
     8428.150000       0.000114
     8435.259400       0.000149
     8442.380800       0.000190
     8449.514200       0.000237
     8456.659600       0.000292
     8463.817200       0.000354
     8470.986900       0.000424
     8478.168700       0.000502
     8485.362700       0.000589
     8492.569000       0.000684
     8499.787500       0.000789
     8507.018300       0.000904
     8514.261400       0.001028
     8521.516800       0.001163
     8528.784600       0.001308
     8536.064900       0.001464
     8543.357500       0.001631
     8550.662700       0.001809
     8557.980300       0.001999
     8565.310500       0.002201
     8572.653200       0.002414
     8580.008600       0.002641
     8587.376600       0.002879
     8594.757200       0.003131
     8602.150500       0.003395
     8609.556600       0.003673
     8616.975400       0.003964
     8624.407100       0.004269
     8631.851500       0.004587
     8639.308900       0.004920
     8646.779100       0.005266
     8654.262200       0.005627
     8661.758300       0.006002
     8669.267400       0.006392
     8676.789600       0.006797
     8684.324800       0.007217
     8691.873100       0.007652
     8699.434500       0.008102
     8707.009100       0.008568
     8714.596900       0.009049
     8722.198000       0.009546
     8729.812300       0.010059
     8737.439900       0.010588
     8745.080900       0.011133
     8752.735200       0.011694
     8760.403000       0.012271
     8768.084200       0.012865
     8775.778900       0.013476
     8783.487000       0.014103
     8791.208800       0.014748
     8798.944100       0.015409
     8806.693100       0.016087
     8814.455700       0.016783
     8822.232000       0.017496
     8830.022100       0.018226
     8837.825900       0.018974
     8845.643500       0.019740
     8853.475000       0.020523
     8861.320300       0.021325
     8869.179600       0.022144
     8877.052800       0.022981
     8884.940000       0.023837
     8892.841300       0.024711
     8900.756600       0.025604
     8908.686000       0.026515
     8916.629500       0.027445
     8924.587200       0.028393
     8932.559200       0.029360
     8940.545400       0.030346
     8948.545900       0.031352
     8956.560700       0.032376
     8964.589900       0.033420
     8972.633500       0.034483
     8980.691500       0.035566
     8988.764000       0.036668
     8996.851100       0.037790
     9004.952700       0.038932
     9013.068900       0.040093
     9021.199800       0.041275
     9029.345400       0.042476
     9037.505600       0.043698
     9045.680700       0.044940
     9053.870500       0.046202
     9062.075200       0.047485
     9070.294800       0.048789
     9078.529300       0.050113
     9086.778700       0.051458
     9095.043200       0.052823
     9103.322700       0.054210
     9111.617300       0.055617
     9119.927000       0.057046
     9128.251900       0.058496
     9136.592100       0.059967
     9144.947400       0.061460
     9153.318100       0.062974
     9161.704100       0.064510
     9170.105500       0.066067
     9178.522300       0.067647
     9186.954500       0.069248
     9195.402300       0.070871
     9203.865600       0.072515
     9212.344500       0.074183
     9220.839100       0.075872
     9229.349300       0.077583
     9237.875300       0.079317
     9246.417000       0.081073
     9254.974500       0.082852
     9263.547900       0.084653
     9272.137200       0.086477
     9280.742500       0.088324
     9289.363700       0.090193
     9298.000900       0.092085
     9306.654300       0.094001
     9315.323700       0.095939
     9324.009300       0.097900
     9332.711200       0.099884
     9341.429200       0.101891
     9350.163600       0.103922
     9358.914400       0.105976
     9367.681500       0.108053
     9376.465100       0.110154
     9385.265100       0.112278
     9394.081700       0.114425
     9402.914900       0.116596
     9411.764700       0.118791
     9420.631200       0.121009
     9429.514400       0.123251
     9438.414300       0.125516
     9447.331100       0.127805
     9456.264800       0.130118
     9465.215300       0.132455
     9474.182900       0.134815
     9483.167400       0.137200
     9492.169000       0.139607
     9501.187600       0.142039
     9510.223500       0.144495
     9519.276500       0.146975
     9528.346800       0.149478
     9537.434400       0.152005
     9546.539400       0.154556
     9555.661700       0.157131
     9564.801500       0.159730
     9573.958800       0.162353
     9583.133700       0.164999
     9592.326100       0.167669
     9601.536200       0.170364
     9610.764100       0.173081
     9620.009600       0.175823
     9629.273000       0.178588
     9638.554200       0.181377
     9647.853400       0.184190
     9657.170400       0.187025
     9666.505600       0.189885
     9675.858700       0.192769
     9685.230000       0.195675
     9694.619500       0.198605
     9704.027200       0.201558
     9713.453100       0.204535
     9722.897400       0.207535
     9732.360100       0.210557
     9741.841200       0.213603
     9751.340800       0.216672
     9760.859000       0.219763
     9770.395700       0.222878
     9779.951100       0.226015
     9789.525200       0.229175
     9799.118100       0.232357
     9808.729800       0.235561
     9818.360300       0.238788
     9828.009800       0.242037
     9837.678300       0.245308
     9847.365800       0.248601
     9857.072400       0.251916
     9866.798200       0.255252
     9876.543200       0.258610
     9886.307500       0.261990
     9896.091000       0.265390
     9905.894000       0.268812
     9915.716400       0.272254
     9925.558300       0.275718
     9935.419800       0.279202
     9945.300800       0.282706
     9955.201600       0.286231
     9965.122100       0.289776
     9975.062300       0.293340
     9985.022500       0.296925
     9995.002500       0.300529
    10005.002500       0.304153
    10015.022500       0.307795
    10025.062700       0.311457
    10035.122900       0.315137
    10045.203400       0.318836
    10055.304200       0.322554
    10065.425300       0.326289
    10075.566800       0.330043
    10085.728700       0.333814
    10095.911200       0.337603
    10106.114200       0.341409
    10116.337900       0.345231
    10126.582300       0.349071
    10136.847400       0.352927
    10147.133400       0.356800
    10157.440300       0.360688
    10167.768200       0.364592
    10178.117000       0.368512
    10188.487000       0.372447
    10198.878100       0.376397
    10209.290500       0.380361
    10219.724100       0.384340
    10230.179000       0.388333
    10240.655400       0.392341
    10251.153300       0.396361
    10261.672700       0.400395
    10272.213700       0.404442
    10282.776300       0.408501
    10293.360800       0.412573
    10303.967000       0.416657
    10314.595200       0.420752
    10325.245200       0.424859
    10335.917300       0.428978
    10346.611500       0.433107
    10357.327800       0.437246
    10368.066400       0.441396
    10378.827200       0.445556
    10389.610400       0.449725
    10400.416000       0.453903
    10411.244100       0.458090
    10422.094800       0.462285
    10432.968200       0.466489
    10443.864200       0.470700
    10454.783100       0.474919
    10465.724800       0.479145
    10476.689400       0.483378
    10487.677000       0.487617
    10498.687700       0.491862
    10509.721500       0.496113
    10520.778500       0.500369
    10531.858900       0.504629
    10542.962600       0.508895
    10554.089700       0.513165
    10565.240400       0.517438
    10576.414600       0.521715
    10587.612500       0.525994
    10598.834100       0.530277
    10610.079600       0.534562
    10621.348900       0.538848
    10632.642200       0.543136
    10643.959600       0.547426
    10655.301000       0.551716
    10666.666700       0.556006
    10678.056600       0.560296
    10689.470900       0.564586
    10700.909600       0.568875
    10712.372800       0.573162
    10723.860600       0.577448
    10735.373100       0.581732
    10746.910300       0.586013
    10758.472300       0.590292
    10770.059200       0.594567
    10781.671200       0.598838
    10793.308100       0.603106
    10804.970300       0.607369
    10816.657700       0.611627
    10828.370300       0.615880
    10840.108400       0.620127
    10851.871900       0.624368
    10863.661100       0.628602
    10875.475800       0.632830
    10887.316300       0.637050
    10899.182600       0.641262
    10911.074700       0.645466
    10922.992900       0.649662
    10934.937100       0.653849
    10946.907500       0.658026
    10958.904100       0.662193
    10970.927000       0.666351
    10982.976400       0.670497
    10995.052200       0.674633
    11007.154700       0.678757
    11019.283700       0.682869
    11031.439600       0.686969
    11043.622300       0.691057
    11055.832000       0.695131
    11068.068600       0.699192
    11080.332400       0.703239
    11092.623400       0.707272
    11104.941700       0.711290
    11117.287400       0.715293
    11129.660500       0.719281
    11142.061300       0.723253
    11154.489700       0.727209
    11166.945800       0.731148
    11179.429800       0.735070
    11191.941800       0.738975
    11204.481800       0.742862
    11217.049900       0.746730
    11229.646300       0.750580
    11242.270900       0.754412
    11254.924000       0.758224
    11267.605600       0.762016
    11280.315800       0.765788
    11293.054800       0.769540
    11305.822500       0.773271
    11318.619100       0.776982
    11331.444800       0.780670
    11344.299500       0.784337
    11357.183400       0.787981
    11370.096600       0.791603
    11383.039300       0.795202
    11396.011400       0.798778
    11409.013100       0.802330
    11422.044500       0.805858
    11435.105800       0.809362
    11448.196900       0.812841
    11461.318100       0.816295
    11474.469300       0.819724
    11487.650800       0.823128
    11500.862600       0.826505
    11514.104800       0.829857
    11527.377500       0.833181
    11540.680900       0.836479
    11554.015000       0.839750
    11567.380000       0.842994
    11580.775900       0.846209
    11594.202900       0.849397
    11607.661100       0.852556
    11621.150500       0.855687
    11634.671300       0.858789
    11648.223600       0.861861
    11661.807600       0.864905
    11675.423200       0.867918
    11689.070700       0.870902
    11702.750100       0.873855
    11716.461600       0.876778
    11730.205300       0.879670
    11743.981200       0.882532
    11757.789500       0.885362
    11771.630400       0.888161
    11785.503800       0.890928
    11799.410000       0.893663
    11813.349100       0.896366
    11827.321100       0.899037
    11841.326200       0.901675
    11855.364600       0.904281
    11869.436200       0.906854
    11883.541300       0.909393
    11897.680000       0.911900
    11911.852300       0.914373
    11926.058400       0.916812
    11940.298500       0.919218
    11954.572600       0.921590
    11968.880900       0.923927
    11983.223500       0.926230
    11997.600500       0.928499
    12012.012000       0.930734
    12026.458200       0.932933
    12040.939200       0.935098
    12055.455100       0.937228
    12070.006000       0.939323
    12084.592100       0.941382
    12099.213600       0.943407
    12113.870400       0.945396
    12128.562800       0.947349
    12143.290800       0.949267
    12158.054700       0.951150
    12172.854500       0.952996
    12187.690400       0.954807
    12202.562500       0.956582
    12217.471000       0.958321
    12232.415900       0.960025
    12247.397400       0.961692
    12262.415700       0.963323
    12277.470800       0.964918
    12292.563000       0.966477
    12307.692300       0.968000
    12322.858900       0.969486
    12338.062900       0.970937
    12353.304500       0.972351
    12368.583800       0.973729
    12383.900900       0.975071
    12399.256000       0.976377
    12414.649300       0.977647
    12430.080800       0.978881
    12445.550700       0.980078
    12461.059200       0.981240
    12476.606400       0.982366
    12492.192400       0.983456
    12507.817400       0.984510
    12523.481500       0.985528
    12539.185000       0.986510
    12554.927800       0.987457
    12570.710200       0.988368
    12586.532400       0.989244
    12602.394500       0.990085
    12618.296500       0.990890
    12634.238800       0.991660
    12650.221400       0.992395
    12666.244500       0.993095
    12682.308200       0.993760
    12698.412700       0.994390
    12714.558200       0.994986
    12730.744700       0.995548
    12746.972600       0.996075
    12763.241900       0.996569
    12779.552700       0.997028
    12795.905300       0.997454
    12812.299800       0.997846
    12828.736400       0.998204
    12845.215200       0.998529
    12861.736300       0.998822
    12878.300100       0.999081
    12894.906500       0.999308
    12911.555800       0.999503
    12928.248200       0.999665
    12944.983800       0.999795
    12961.762800       0.999893
    12978.585300       0.999960
    12995.451600       0.999996
    13012.361700       1.000000
    13029.316000       0.999974
    13046.314400       0.999917
    13063.357300       0.999829
    13080.444700       0.999712
    13097.576900       0.999565
    13114.754100       0.999388
    13131.976400       0.999182
    13149.243900       0.998947
    13166.556900       0.998683
    13183.915600       0.998391
    13201.320100       0.998070
    13218.770700       0.997722
    13236.267400       0.997346
    13253.810500       0.996944
    13271.400100       0.996514
    13289.036500       0.996057
    13306.719900       0.995575
    13324.450400       0.995066
    13342.228200       0.994532
    13360.053400       0.993972
    13377.926400       0.993388
    13395.847300       0.992778
    13413.816200       0.992145
    13431.833400       0.991488
    13449.899100       0.990807
    13468.013500       0.990102
    13486.176700       0.989375
    13504.388900       0.988626
    13522.650400       0.987854
    13540.961400       0.987061
    13559.322000       0.986246
    13577.732500       0.985410
    13596.193100       0.984553
    13614.703900       0.983677
    13633.265200       0.982780
    13651.877100       0.981864
    13670.540000       0.980928
    13689.253900       0.979974
    13708.019200       0.979002
    13726.836000       0.978011
    13745.704500       0.977004
    13764.624900       0.975979
    13783.597500       0.974937
    13802.622500       0.973879
    13821.700100       0.972805
    13840.830400       0.971715
    13860.013900       0.970610
    13879.250500       0.969491
    13898.540700       0.968357
    13917.884500       0.967210
    13937.282200       0.966048
    13956.734100       0.964874
    13976.240400       0.963688
    13995.801300       0.962489
    14015.417000       0.961278
    14035.087700       0.960055
    14054.813800       0.958822
    14074.595400       0.957579
    14094.432700       0.956325
    14114.326000       0.955061
    14134.275600       0.953788
    14154.281700       0.952506
    14174.344400       0.951216
    14194.464200       0.949918
    14214.641100       0.948612
    14234.875400       0.947299
    14255.167500       0.945979
    14275.517500       0.944653
    14295.925700       0.943321
    14316.392300       0.941983
    14336.917600       0.940641
    14357.501800       0.939293
    14378.145200       0.937942
    14398.848100       0.936586
    14419.610700       0.935227
    14440.433200       0.933865
    14461.316000       0.932500
    14482.259200       0.931133
    14503.263200       0.929764
    14524.328200       0.928394
    14545.454500       0.927022
    14566.642400       0.925650
    14587.892000       0.924278
    14609.203800       0.922906
    14630.577900       0.921535
    14652.014700       0.920164
    14673.514300       0.918795
    14695.077100       0.917427
    14716.703500       0.916061
    14738.393500       0.914698
    14760.147600       0.913338
    14781.966000       0.911981
    14803.849000       0.910627
    14825.796900       0.909277
    14847.809900       0.907932
    14869.888500       0.906591
    14892.032800       0.905255
    14914.243100       0.903924
    14936.519800       0.902599
    14958.863100       0.901280
    14981.273400       0.899967
    15003.750900       0.898661
    15026.296000       0.897362
    15048.909000       0.896070
    15071.590100       0.894785
    15094.339600       0.893509
    15117.158000       0.892241
    15140.045400       0.890981
    15163.002300       0.889730
    15186.028900       0.888488
    15209.125500       0.887255
    15232.292500       0.886032
    15255.530100       0.884819
    15278.838800       0.883615
    15302.218800       0.882423
    15325.670500       0.881241
    15349.194200       0.880070
    15372.790200       0.878909
    15396.458800       0.877761
    15420.200500       0.876624
    15444.015400       0.875498
    15467.904100       0.874385
    15491.866800       0.873284
    15515.903800       0.872195
    15540.015500       0.871119
    15564.202300       0.870056
    15588.464500       0.869005
    15612.802500       0.867968
    15637.216600       0.866944
    15661.707100       0.865933
    15686.274500       0.864936
    15710.919100       0.863953
    15735.641200       0.862983
    15760.441300       0.862028
    15785.319700       0.861086
    15810.276700       0.860159
    15835.312700       0.859246
    15860.428200       0.858348
    15885.623500       0.857463
    15910.899000       0.856594
    15936.255000       0.855739
    15961.691900       0.854898
    15987.210200       0.854073
    16012.810200       0.853261
    16038.492400       0.852465
    16064.257000       0.851684
    16090.104600       0.850917
    16116.035500       0.850165
    16142.050000       0.849428
    16168.148700       0.848705
    16194.332000       0.847998
    16220.600200       0.847305
    16246.953700       0.846626
    16273.393000       0.845963
    16299.918500       0.845314
    16326.530600       0.844679
    16353.229800       0.844058
    16380.016400       0.843452
    16406.890900       0.842861
    16433.853700       0.842283
    16460.905300       0.841719
    16488.046200       0.841169
    16515.276600       0.840633
    16542.597200       0.840110
    16570.008300       0.839600
    16597.510400       0.839104
    16625.103900       0.838621
    16652.789300       0.838151
    16680.567100       0.837693
    16708.437800       0.837248
    16736.401700       0.836815
    16764.459300       0.836394
    16792.611300       0.835985
    16820.857900       0.835587
    16849.199700       0.835200
    16877.637100       0.834825
    16906.170800       0.834460
    16934.801000       0.834105
    16963.528400       0.833761
    16992.353400       0.833426
    17021.276600       0.833101
    17050.298400       0.832785
    17079.419300       0.832477
    17108.639900       0.832179
    17137.960600       0.831888
    17167.382000       0.831605
    17196.904600       0.831329
    17226.528900       0.831060
    17256.255400       0.830798
    17286.084700       0.830542
    17316.017300       0.830291
    17346.053800       0.830046
    17376.194600       0.829806
    17406.440400       0.829570
    17436.791600       0.829337
    17467.248900       0.829109
    17497.812800       0.828883
    17528.483800       0.828660
    17559.262500       0.828439
    17590.149500       0.828219
    17621.145400       0.828000
    17652.250700       0.827782
    17683.466000       0.827563
    17714.791900       0.827344
    17746.228900       0.827124
    17777.777800       0.826901
    17809.439000       0.826677
    17841.213200       0.826449
    17873.101000       0.826218
    17905.103000       0.825983
    17937.219700       0.825743
    17969.451900       0.825498
    18001.800200       0.825246
    18034.265100       0.824989
    18066.847300       0.824723
    18099.547500       0.824450
    18132.366300       0.824168
    18165.304300       0.823878
    18198.362100       0.823577
    18231.540600       0.823265
    18264.840200       0.822942
    18298.261700       0.822607
    18331.805700       0.822260
    18365.472900       0.821899
    18399.264000       0.821524
    18433.179700       0.821134
    18467.220700       0.820728
    18501.387600       0.820306
    18535.681200       0.819867
    18570.102100       0.819410
    18604.651200       0.818935
    18639.329000       0.818440
    18674.136300       0.817925
    18709.073900       0.817389
    18744.142500       0.816831
    18779.342700       0.816251
    18814.675400       0.815647
    18850.141400       0.815019
    18885.741300       0.814367
    18921.475900       0.813688
    18957.346000       0.812984
    18993.352300       0.812251
    19029.495700       0.811491
    19065.776900       0.810702
    19102.196800       0.809882
    19138.756000       0.809032
    19175.455400       0.808151
    19212.295900       0.807237
    19249.278200       0.806290
    19286.403100       0.805309
    19323.671500       0.804293
    19361.084200       0.803241
    19398.642100       0.802153
    19436.346000       0.801027
    19474.196700       0.799863
    19512.195100       0.798660
    19550.342100       0.797417
    19588.638600       0.796133
    19627.085400       0.794807
    19665.683400       0.793438
    19704.433500       0.792027
    19743.336600       0.790570
    19782.393700       0.789069
    19821.605600       0.787521
    19860.973200       0.785927
    19900.497500       0.784285
    19940.179500       0.782594
    19980.020000       0.780854
    20020.020000       0.779064
    20060.180500       0.777222
    20100.502500       0.775329
    20140.986900       0.773382
    20181.634700       0.771382
    20222.446900       0.769328
    20263.424500       0.767218
    20304.568500       0.765051
    20345.880000       0.762828
    20387.359800       0.760548
    20429.009200       0.758208
    20470.829100       0.755809
    20512.820500       0.753350
    20554.984600       0.750830
    20597.322300       0.748248
    20639.834900       0.745604
    20682.523300       0.742896
    20725.388600       0.740124
    20768.432000       0.737288
    20811.654500       0.734386
    20855.057400       0.731417
    20898.641600       0.728382
    20942.408400       0.725278
    20986.358900       0.722107
    21030.494200       0.718865
    21074.815600       0.715555
    21119.324200       0.712173
    21164.021200       0.708721
    21208.907700       0.705197
    21253.985100       0.701600
    21299.254500       0.697930
    21344.717200       0.694186
    21390.374300       0.690368
    21436.227200       0.686475
    21482.277100       0.682507
    21528.525300       0.678463
    21574.973000       0.674342
    21621.621600       0.670144
    21668.472400       0.665868
    21715.526600       0.661514
    21762.785600       0.657082
    21810.250800       0.652570
    21857.923500       0.647980
    21905.805000       0.643309
    21953.896800       0.638558
    22002.200200       0.633726
    22050.716600       0.628813
    22099.447500       0.623819
    22148.394200       0.618743
    22197.558300       0.613585
    22246.941000       0.608345
    22296.544000       0.603022
    22346.368700       0.597617
    22396.416600       0.592128
    22446.689100       0.586556
    22497.187900       0.580901
    22547.914300       0.575162
    22598.870100       0.569340
    22650.056600       0.563434
    22701.475600       0.557443
    22753.128600       0.551370
    22805.017100       0.545212
    22857.142900       0.538970
    22909.507400       0.532645
    22962.112500       0.526235
    23014.959700       0.519742
    23068.050700       0.513166
    23121.387300       0.506506
    23174.971000       0.499762
    23228.803700       0.492936
    23282.887100       0.486027
    23337.222900       0.479036
    23391.812900       0.471962
    23446.658900       0.464806
    23501.762600       0.457569
    23557.126000       0.450251
    23612.750900       0.442852
    23668.639100       0.435373
    23724.792400       0.427815
    23781.212800       0.420177
    23837.902300       0.412460
    23894.862600       0.404666
    23952.095800       0.396794
    24009.603800       0.388846
    24067.388700       0.380822
    24125.452400       0.372723
    24183.796900       0.364550
    24242.424200       0.356303
    24301.336600       0.347983
    24360.535900       0.339592
    24420.024400       0.331130
    24479.804200       0.322599
    24539.877300       0.313999
    24600.246000       0.305331
    24660.912500       0.296597
    24721.878900       0.287798
    24783.147500       0.278934
    24844.720500       0.270009
    24906.600200       0.261021
    24968.789000       0.251974
    25031.289100       0.242868
    25094.102900       0.233705
    25157.232700       0.224486
    25220.681000       0.215213
    25284.450100       0.205887
    25348.542500       0.196511
    25412.960600       0.187085
    25477.707000       0.177612
