1,   1, MVIRI VIS channel from srf_MET2_1982078_1982079_1801-Release_S10EL_10.dat
Number of data points:
730
Wavenumber (cm-1)   Filter response
     8916.629500       0.000000
     8924.587200       0.000000
     8932.559200       0.000002
     8940.545400       0.000011
     8948.545900       0.000032
     8956.560700       0.000068
     8964.589900       0.000124
     8972.633500       0.000205
     8980.691500       0.000313
     8988.764000       0.000453
     8996.851100       0.000629
     9004.952700       0.000844
     9013.068900       0.001101
     9021.199800       0.001403
     9029.345400       0.001754
     9037.505600       0.002156
     9045.680700       0.002612
     9053.870500       0.003124
     9062.075200       0.003695
     9070.294800       0.004328
     9078.529300       0.005024
     9086.778700       0.005785
     9095.043200       0.006614
     9103.322700       0.007513
     9111.617300       0.008483
     9119.927000       0.009525
     9128.251900       0.010641
     9136.592100       0.011833
     9144.947400       0.013102
     9153.318100       0.014449
     9161.704100       0.015875
     9170.105500       0.017381
     9178.522300       0.018969
     9186.954500       0.020638
     9195.402300       0.022390
     9203.865600       0.024225
     9212.344500       0.026143
     9220.839100       0.028147
     9229.349300       0.030234
     9237.875300       0.032407
     9246.417000       0.034665
     9254.974500       0.037008
     9263.547900       0.039437
     9272.137200       0.041951
     9280.742500       0.044550
     9289.363700       0.047235
     9298.000900       0.050006
     9306.654300       0.052861
     9315.323700       0.055801
     9324.009300       0.058826
     9332.711200       0.061934
     9341.429200       0.065126
     9350.163600       0.068401
     9358.914400       0.071758
     9367.681500       0.075198
     9376.465100       0.078718
     9385.265100       0.082320
     9394.081700       0.086001
     9402.914900       0.089761
     9411.764700       0.093600
     9420.631200       0.097516
     9429.514400       0.101508
     9438.414300       0.105577
     9447.331100       0.109720
     9456.264800       0.113937
     9465.215300       0.118227
     9474.182900       0.122588
     9483.167400       0.127020
     9492.169000       0.131522
     9501.187600       0.136092
     9510.223500       0.140729
     9519.276500       0.145433
     9528.346800       0.150201
     9537.434400       0.155034
     9546.539400       0.159929
     9555.661700       0.164885
     9564.801500       0.169901
     9573.958800       0.174976
     9583.133700       0.180109
     9592.326100       0.185297
     9601.536200       0.190541
     9610.764100       0.195837
     9620.009600       0.201187
     9629.273000       0.206587
     9638.554200       0.212036
     9647.853400       0.217534
     9657.170400       0.223078
     9666.505600       0.228668
     9675.858700       0.234302
     9685.230000       0.239978
     9694.619500       0.245696
     9704.027200       0.251452
     9713.453100       0.257248
     9722.897400       0.263081
     9732.360100       0.268949
     9741.841200       0.274852
     9751.340800       0.280787
     9760.859000       0.286754
     9770.395700       0.292751
     9779.951100       0.298775
     9789.525200       0.304828
     9799.118100       0.310906
     9808.729800       0.317009
     9818.360300       0.323135
     9828.009800       0.329282
     9837.678300       0.335449
     9847.365800       0.341636
     9857.072400       0.347840
     9866.798200       0.354061
     9876.543200       0.360295
     9886.307500       0.366544
     9896.091000       0.372806
     9905.894000       0.379077
     9915.716400       0.385359
     9925.558300       0.391648
     9935.419800       0.397945
     9945.300800       0.404248
     9955.201600       0.410554
     9965.122100       0.416865
     9975.062300       0.423176
     9985.022500       0.429489
     9995.002500       0.435802
    10005.002500       0.442112
    10015.022500       0.448420
    10025.062700       0.454723
    10035.122900       0.461022
    10045.203400       0.467314
    10055.304200       0.473598
    10065.425300       0.479874
    10075.566800       0.486140
    10085.728700       0.492395
    10095.911200       0.498638
    10106.114200       0.504868
    10116.337900       0.511084
    10126.582300       0.517284
    10136.847400       0.523469
    10147.133400       0.529637
    10157.440300       0.535786
    10167.768200       0.541916
    10178.117000       0.548026
    10188.487000       0.554114
    10198.878100       0.560182
    10209.290500       0.566226
    10219.724100       0.572246
    10230.179000       0.578241
    10240.655400       0.584211
    10251.153300       0.590155
    10261.672700       0.596071
    10272.213700       0.601959
    10282.776300       0.607818
    10293.360800       0.613648
    10303.967000       0.619447
    10314.595200       0.625215
    10325.245200       0.630951
    10335.917300       0.636654
    10346.611500       0.642324
    10357.327800       0.647960
    10368.066400       0.653561
    10378.827200       0.659127
    10389.610400       0.664657
    10400.416000       0.670150
    10411.244100       0.675606
    10422.094800       0.681024
    10432.968200       0.686403
    10443.864200       0.691744
    10454.783100       0.697045
    10465.724800       0.702306
    10476.689400       0.707526
    10487.677000       0.712706
    10498.687700       0.717843
    10509.721500       0.722939
    10520.778500       0.727992
    10531.858900       0.733002
    10542.962600       0.737969
    10554.089700       0.742892
    10565.240400       0.747771
    10576.414600       0.752605
    10587.612500       0.757395
    10598.834100       0.762139
    10610.079600       0.766838
    10621.348900       0.771491
    10632.642200       0.776098
    10643.959600       0.780658
    10655.301000       0.785171
    10666.666700       0.789638
    10678.056600       0.794057
    10689.470900       0.798428
    10700.909600       0.802752
    10712.372800       0.807028
    10723.860600       0.811256
    10735.373100       0.815435
    10746.910300       0.819566
    10758.472300       0.823648
    10770.059200       0.827682
    10781.671200       0.831666
    10793.308100       0.835602
    10804.970300       0.839488
    10816.657700       0.843325
    10828.370300       0.847113
    10840.108400       0.850851
    10851.871900       0.854540
    10863.661100       0.858179
    10875.475800       0.861769
    10887.316300       0.865309
    10899.182600       0.868799
    10911.074700       0.872240
    10922.992900       0.875631
    10934.937100       0.878973
    10946.907500       0.882265
    10958.904100       0.885507
    10970.927000       0.888700
    10982.976400       0.891843
    10995.052200       0.894937
    11007.154700       0.897982
    11019.283700       0.900977
    11031.439600       0.903923
    11043.622300       0.906820
    11055.832000       0.909668
    11068.068600       0.912468
    11080.332400       0.915218
    11092.623400       0.917920
    11104.941700       0.920574
    11117.287400       0.923179
    11129.660500       0.925735
    11142.061300       0.928244
    11154.489700       0.930705
    11166.945800       0.933118
    11179.429800       0.935484
    11191.941800       0.937803
    11204.481800       0.940074
    11217.049900       0.942298
    11229.646300       0.944476
    11242.270900       0.946607
    11254.924000       0.948692
    11267.605600       0.950730
    11280.315800       0.952723
    11293.054800       0.954670
    11305.822500       0.956572
    11318.619100       0.958429
    11331.444800       0.960241
    11344.299500       0.962008
    11357.183400       0.963730
    11370.096600       0.965409
    11383.039300       0.967043
    11396.011400       0.968634
    11409.013100       0.970182
    11422.044500       0.971687
    11435.105800       0.973149
    11448.196900       0.974568
    11461.318100       0.975945
    11474.469300       0.977280
    11487.650800       0.978574
    11500.862600       0.979826
    11514.104800       0.981037
    11527.377500       0.982207
    11540.680900       0.983337
    11554.015000       0.984427
    11567.380000       0.985477
    11580.775900       0.986487
    11594.202900       0.987458
    11607.661100       0.988390
    11621.150500       0.989284
    11634.671300       0.990139
    11648.223600       0.990956
    11661.807600       0.991736
    11675.423200       0.992478
    11689.070700       0.993183
    11702.750100       0.993852
    11716.461600       0.994484
    11730.205300       0.995080
    11743.981200       0.995640
    11757.789500       0.996164
    11771.630400       0.996654
    11785.503800       0.997109
    11799.410000       0.997529
    11813.349100       0.997915
    11827.321100       0.998268
    11841.326200       0.998586
    11855.364600       0.998872
    11869.436200       0.999125
    11883.541300       0.999345
    11897.680000       0.999533
    11911.852300       0.999689
    11926.058400       0.999813
    11940.298500       0.999906
    11954.572600       0.999968
    11968.880900       0.999999
    11983.223500       1.000000
    11997.600500       0.999971
    12012.012000       0.999912
    12026.458200       0.999824
    12040.939200       0.999706
    12055.455100       0.999560
    12070.006000       0.999385
    12084.592100       0.999182
    12099.213600       0.998951
    12113.870400       0.998692
    12128.562800       0.998406
    12143.290800       0.998093
    12158.054700       0.997753
    12172.854500       0.997387
    12187.690400       0.996994
    12202.562500       0.996576
    12217.471000       0.996132
    12232.415900       0.995662
    12247.397400       0.995168
    12262.415700       0.994649
    12277.470800       0.994105
    12292.563000       0.993537
    12307.692300       0.992945
    12322.858900       0.992329
    12338.062900       0.991690
    12353.304500       0.991028
    12368.583800       0.990342
    12383.900900       0.989634
    12399.256000       0.988904
    12414.649300       0.988151
    12430.080800       0.987377
    12445.550700       0.986581
    12461.059200       0.985763
    12476.606400       0.984924
    12492.192400       0.984064
    12507.817400       0.983183
    12523.481500       0.982282
    12539.185000       0.981361
    12554.927800       0.980419
    12570.710200       0.979458
    12586.532400       0.978477
    12602.394500       0.977476
    12618.296500       0.976457
    12634.238800       0.975418
    12650.221400       0.974361
    12666.244500       0.973285
    12682.308200       0.972190
    12698.412700       0.971078
    12714.558200       0.969947
    12730.744700       0.968798
    12746.972600       0.967632
    12763.241900       0.966449
    12779.552700       0.965248
    12795.905300       0.964030
    12812.299800       0.962795
    12828.736400       0.961544
    12845.215200       0.960276
    12861.736300       0.958991
    12878.300100       0.957691
    12894.906500       0.956374
    12911.555800       0.955041
    12928.248200       0.953693
    12944.983800       0.952329
    12961.762800       0.950949
    12978.585300       0.949554
    12995.451600       0.948144
    13012.361700       0.946719
    13029.316000       0.945280
    13046.314400       0.943825
    13063.357300       0.942356
    13080.444700       0.940872
    13097.576900       0.939374
    13114.754100       0.937862
    13131.976400       0.936336
    13149.243900       0.934795
    13166.556900       0.933241
    13183.915600       0.931673
    13201.320100       0.930092
    13218.770700       0.928497
    13236.267400       0.926888
    13253.810500       0.925266
    13271.400100       0.923631
    13289.036500       0.921983
    13306.719900       0.920323
    13324.450400       0.918649
    13342.228200       0.916962
    13360.053400       0.915263
    13377.926400       0.913551
    13395.847300       0.911826
    13413.816200       0.910089
    13431.833400       0.908340
    13449.899100       0.906579
    13468.013500       0.904805
    13486.176700       0.903020
    13504.388900       0.901222
    13522.650400       0.899412
    13540.961400       0.897591
    13559.322000       0.895758
    13577.732500       0.893913
    13596.193100       0.892056
    13614.703900       0.890188
    13633.265200       0.888309
    13651.877100       0.886418
    13670.540000       0.884516
    13689.253900       0.882602
    13708.019200       0.880678
    13726.836000       0.878742
    13745.704500       0.876795
    13764.624900       0.874837
    13783.597500       0.872868
    13802.622500       0.870889
    13821.700100       0.868898
    13840.830400       0.866897
    13860.013900       0.864885
    13879.250500       0.862862
    13898.540700       0.860829
    13917.884500       0.858785
    13937.282200       0.856731
    13956.734100       0.854666
    13976.240400       0.852591
    13995.801300       0.850506
    14015.417000       0.848410
    14035.087700       0.846304
    14054.813800       0.844188
    14074.595400       0.842062
    14094.432700       0.839926
    14114.326000       0.837780
    14134.275600       0.835624
    14154.281700       0.833458
    14174.344400       0.831283
    14194.464200       0.829097
    14214.641100       0.826902
    14234.875400       0.824697
    14255.167500       0.822483
    14275.517500       0.820259
    14295.925700       0.818025
    14316.392300       0.815782
    14336.917600       0.813530
    14357.501800       0.811269
    14378.145200       0.808998
    14398.848100       0.806718
    14419.610700       0.804428
    14440.433200       0.802130
    14461.316000       0.799823
    14482.259200       0.797506
    14503.263200       0.795181
    14524.328200       0.792847
    14545.454500       0.790504
    14566.642400       0.788152
    14587.892000       0.785792
    14609.203800       0.783423
    14630.577900       0.781045
    14652.014700       0.778659
    14673.514300       0.776265
    14695.077100       0.773862
    14716.703500       0.771451
    14738.393500       0.769032
    14760.147600       0.766604
    14781.966000       0.764169
    14803.849000       0.761725
    14825.796900       0.759274
    14847.809900       0.756815
    14869.888500       0.754348
    14892.032800       0.751873
    14914.243100       0.749391
    14936.519800       0.746901
    14958.863100       0.744404
    14981.273400       0.741900
    15003.750900       0.739388
    15026.296000       0.736869
    15048.909000       0.734343
    15071.590100       0.731809
    15094.339600       0.729269
    15117.158000       0.726722
    15140.045400       0.724169
    15163.002300       0.721608
    15186.028900       0.719042
    15209.125500       0.716468
    15232.292500       0.713888
    15255.530100       0.711302
    15278.838800       0.708710
    15302.218800       0.706112
    15325.670500       0.703508
    15349.194200       0.700898
    15372.790200       0.698282
    15396.458800       0.695661
    15420.200500       0.693034
    15444.015400       0.690401
    15467.904100       0.687764
    15491.866800       0.685121
    15515.903800       0.682473
    15540.015500       0.679820
    15564.202300       0.677162
    15588.464500       0.674499
    15612.802500       0.671832
    15637.216600       0.669161
    15661.707100       0.666485
    15686.274500       0.663804
    15710.919100       0.661120
    15735.641200       0.658431
    15760.441300       0.655739
    15785.319700       0.653043
    15810.276700       0.650343
    15835.312700       0.647640
    15860.428200       0.644934
    15885.623500       0.642224
    15910.899000       0.639511
    15936.255000       0.636795
    15961.691900       0.634077
    15987.210200       0.631356
    16012.810200       0.628632
    16038.492400       0.625906
    16064.257000       0.623177
    16090.104600       0.620446
    16116.035500       0.617714
    16142.050000       0.614979
    16168.148700       0.612243
    16194.332000       0.609505
    16220.600200       0.606766
    16246.953700       0.604026
    16273.393000       0.601284
    16299.918500       0.598542
    16326.530600       0.595799
    16353.229800       0.593055
    16380.016400       0.590310
    16406.890900       0.587565
    16433.853700       0.584820
    16460.905300       0.582075
    16488.046200       0.579329
    16515.276600       0.576584
    16542.597200       0.573839
    16570.008300       0.571095
    16597.510400       0.568352
    16625.103900       0.565609
    16652.789300       0.562867
    16680.567100       0.560126
    16708.437800       0.557387
    16736.401700       0.554648
    16764.459300       0.551912
    16792.611300       0.549177
    16820.857900       0.546444
    16849.199700       0.543712
    16877.637100       0.540983
    16906.170800       0.538256
    16934.801000       0.535532
    16963.528400       0.532810
    16992.353400       0.530091
    17021.276600       0.527374
    17050.298400       0.524661
    17079.419300       0.521950
    17108.639900       0.519243
    17137.960600       0.516539
    17167.382000       0.513839
    17196.904600       0.511142
    17226.528900       0.508449
    17256.255400       0.505760
    17286.084700       0.503075
    17316.017300       0.500394
    17346.053800       0.497718
    17376.194600       0.495046
    17406.440400       0.492378
    17436.791600       0.489715
    17467.248900       0.487057
    17497.812800       0.484403
    17528.483800       0.481755
    17559.262500       0.479112
    17590.149500       0.476474
    17621.145400       0.473841
    17652.250700       0.471214
    17683.466000       0.468592
    17714.791900       0.465975
    17746.228900       0.463365
    17777.777800       0.460760
    17809.439000       0.458162
    17841.213200       0.455569
    17873.101000       0.452982
    17905.103000       0.450402
    17937.219700       0.447827
    17969.451900       0.445260
    18001.800200       0.442698
    18034.265100       0.440143
    18066.847300       0.437594
    18099.547500       0.435052
    18132.366300       0.432517
    18165.304300       0.429988
    18198.362100       0.427467
    18231.540600       0.424952
    18264.840200       0.422443
    18298.261700       0.419942
    18331.805700       0.417448
    18365.472900       0.414960
    18399.264000       0.412480
    18433.179700       0.410007
    18467.220700       0.407541
    18501.387600       0.405081
    18535.681200       0.402629
    18570.102100       0.400184
    18604.651200       0.397747
    18639.329000       0.395316
    18674.136300       0.392892
    18709.073900       0.390476
    18744.142500       0.388066
    18779.342700       0.385664
    18814.675400       0.383268
    18850.141400       0.380880
    18885.741300       0.378499
    18921.475900       0.376124
    18957.346000       0.373757
    18993.352300       0.371396
    19029.495700       0.369042
    19065.776900       0.366695
    19102.196800       0.364355
    19138.756000       0.362021
    19175.455400       0.359694
    19212.295900       0.357374
    19249.278200       0.355060
    19286.403100       0.352752
    19323.671500       0.350450
    19361.084200       0.348155
    19398.642100       0.345866
    19436.346000       0.343582
    19474.196700       0.341305
    19512.195100       0.339033
    19550.342100       0.336767
    19588.638600       0.334507
    19627.085400       0.332251
    19665.683400       0.330001
    19704.433500       0.327757
    19743.336600       0.325517
    19782.393700       0.323282
    19821.605600       0.321051
    19860.973200       0.318826
    19900.497500       0.316604
    19940.179500       0.314387
    19980.020000       0.312174
    20020.020000       0.309964
    20060.180500       0.307758
    20100.502500       0.305556
    20140.986900       0.303357
    20181.634700       0.301161
    20222.446900       0.298968
    20263.424500       0.296778
    20304.568500       0.294590
    20345.880000       0.292404
    20387.359800       0.290221
    20429.009200       0.288039
    20470.829100       0.285859
    20512.820500       0.283681
    20554.984600       0.281503
    20597.322300       0.279327
    20639.834900       0.277151
    20682.523300       0.274975
    20725.388600       0.272800
    20768.432000       0.270625
    20811.654500       0.268449
    20855.057400       0.266273
    20898.641600       0.264096
    20942.408400       0.261918
    20986.358900       0.259739
    21030.494200       0.257558
    21074.815600       0.255375
    21119.324200       0.253190
    21164.021200       0.251003
    21208.907700       0.248813
    21253.985100       0.246620
    21299.254500       0.244424
    21344.717200       0.242224
    21390.374300       0.240021
    21436.227200       0.237814
    21482.277100       0.235602
    21528.525300       0.233385
    21574.973000       0.231164
    21621.621600       0.228938
    21668.472400       0.226706
    21715.526600       0.224468
    21762.785600       0.222224
    21810.250800       0.219974
    21857.923500       0.217718
    21905.805000       0.215455
    21953.896800       0.213184
    22002.200200       0.210906
    22050.716600       0.208621
    22099.447500       0.206328
    22148.394200       0.204026
    22197.558300       0.201716
    22246.941000       0.199398
    22296.544000       0.197070
    22346.368700       0.194734
    22396.416600       0.192387
    22446.689100       0.190032
    22497.187900       0.187666
    22547.914300       0.185290
    22598.870100       0.182904
    22650.056600       0.180508
    22701.475600       0.178101
    22753.128600       0.175682
    22805.017100       0.173253
    22857.142900       0.170812
    22909.507400       0.168360
    22962.112500       0.165897
    23014.959700       0.163421
    23068.050700       0.160934
    23121.387300       0.158434
    23174.971000       0.155923
    23228.803700       0.153399
    23282.887100       0.150862
    23337.222900       0.148314
    23391.812900       0.145752
    23446.658900       0.143178
    23501.762600       0.140592
    23557.126000       0.137992
    23612.750900       0.135380
    23668.639100       0.132756
    23724.792400       0.130118
    23781.212800       0.127468
    23837.902300       0.124806
    23894.862600       0.122131
    23952.095800       0.119443
    24009.603800       0.116743
    24067.388700       0.114031
    24125.452400       0.111307
    24183.796900       0.108571
    24242.424200       0.105824
    24301.336600       0.103064
    24360.535900       0.100294
    24420.024400       0.097513
    24479.804200       0.094721
    24539.877300       0.091918
    24600.246000       0.089106
    24660.912500       0.086284
    24721.878900       0.083453
    24783.147500       0.080612
    24844.720500       0.077764
    24906.600200       0.074907
    24968.789000       0.072043
    25031.289100       0.069173
    25094.102900       0.066296
    25157.232700       0.063413
    25220.681000       0.060525
    25284.450100       0.057633
    25348.542500       0.054738
    25412.960600       0.051839
    25477.707000       0.048939
