 2    ,noaa_19_avhrr_02.flt
Number of data points:
92
Wavenumber (cm-1)   Filter response
     9469.697000       0.000000
     9505.703400       0.000183
     9541.984700       0.000059
     9578.544100       0.000031
     9615.384600       0.000003
     9652.509700       0.000444
     9689.922500       0.000303
     9727.626500       0.000861
     9765.625000       0.001790
     9803.921600       0.002888
     9842.519700       0.005095
     9881.422900       0.009097
     9920.634900       0.017129
     9960.159400       0.031059
    10000.000000       0.058061
    10040.160600       0.103400
    10080.645200       0.176870
    10121.457500       0.276050
    10162.601600       0.369290
    10204.081600       0.431050
    10245.901600       0.464350
    10288.065800       0.484270
    10330.578500       0.501620
    10373.444000       0.519780
    10416.666700       0.540430
    10460.251000       0.565700
    10504.201700       0.592740
    10548.523200       0.615950
    10593.220300       0.635470
    10638.297900       0.657750
    10683.760700       0.676670
    10729.613700       0.696760
    10775.862100       0.717130
    10822.510800       0.734070
    10869.565200       0.747680
    10917.030600       0.754080
    10964.912300       0.757910
    11013.215900       0.759830
    11061.946900       0.766440
    11111.111100       0.772930
    11160.714300       0.794120
    11210.762300       0.808650
    11261.261300       0.822350
    11312.217200       0.840210
    11363.636400       0.856540
    11415.525100       0.869160
    11467.889900       0.874610
    11520.737300       0.873960
    11574.074100       0.872700
    11627.907000       0.869620
    11682.243000       0.871780
    11737.089200       0.875060
    11792.452800       0.896030
    11848.341200       0.914710
    11904.761900       0.890810
    11961.722500       0.942190
    12019.230800       0.951540
    12077.294700       0.953190
    12135.922300       0.958780
    12195.122000       0.971330
    12254.902000       0.982960
    12315.270900       0.984750
    12376.237600       0.986660
    12437.810900       0.979480
    12500.000000       0.989530
    12562.814100       0.992210
    12626.262600       0.990590
    12690.355300       0.982950
    12755.102000       0.976240
    12820.512800       0.987620
    12886.597900       0.991360
    12953.367900       0.990690
    13020.833300       1.000000
    13089.005200       0.984720
    13157.894700       0.977310
    13227.513200       0.958240
    13297.872300       0.939280
    13368.984000       0.908420
    13440.860200       0.873140
    13513.513500       0.865740
    13586.956500       0.831740
    13661.202200       0.576140
    13736.263700       0.357810
    13812.154700       0.268930
    13888.888900       0.230910
    13966.480400       0.220920
    14044.943800       0.218960
    14124.293800       0.166460
    14204.545500       0.049883
    14285.714300       0.004125
    14367.816100       0.000021
    14450.867100       0.000000
