15, GOES-R 12.3um ABI SRF CWG processed version 3 March 10, 2016
Number of data points:
1369
Wavenumber (cm-1)   Filter response
      757.300000       0.001002
      757.400000       0.001181
      757.500000       0.001361
      757.600000       0.001540
      757.700000       0.001718
      757.800000       0.001897
      757.900000       0.002076
      758.000000       0.002254
      758.100000       0.002432
      758.200000       0.002605
      758.300000       0.002776
      758.400000       0.002947
      758.500000       0.003119
      758.600000       0.003290
      758.700000       0.003461
      758.800000       0.003632
      758.900000       0.003803
      759.000000       0.003976
      759.100000       0.004047
      759.200000       0.004006
      759.300000       0.003969
      759.400000       0.003931
      759.500000       0.003893
      759.600000       0.003855
      759.700000       0.003817
      759.800000       0.003780
      759.900000       0.003742
      760.000000       0.003703
      760.100000       0.003659
      760.200000       0.003613
      760.300000       0.003568
      760.400000       0.003523
      760.500000       0.003478
      760.600000       0.003432
      760.700000       0.003387
      760.800000       0.003342
      760.900000       0.003305
      761.000000       0.003476
      761.100000       0.003713
      761.200000       0.003950
      761.300000       0.004187
      761.400000       0.004424
      761.500000       0.004661
      761.600000       0.004897
      761.700000       0.005134
      761.800000       0.005370
      761.900000       0.005497
      762.000000       0.005493
      762.100000       0.005488
      762.200000       0.005483
      762.300000       0.005477
      762.400000       0.005472
      762.500000       0.005466
      762.600000       0.005461
      762.700000       0.005455
      762.800000       0.005436
      762.900000       0.005356
      763.000000       0.005272
      763.100000       0.005188
      763.200000       0.005103
      763.300000       0.005018
      763.400000       0.004933
      763.500000       0.004848
      763.600000       0.004763
      763.700000       0.004675
      763.800000       0.004676
      763.900000       0.004703
      764.000000       0.004729
      764.100000       0.004754
      764.200000       0.004780
      764.300000       0.004805
      764.400000       0.004831
      764.500000       0.004858
      764.600000       0.004886
      764.700000       0.005020
      764.800000       0.005300
      764.900000       0.005581
      765.000000       0.005862
      765.100000       0.006143
      765.200000       0.006424
      765.300000       0.006705
      765.400000       0.006985
      765.500000       0.007266
      765.600000       0.007540
      765.700000       0.007776
      765.800000       0.008008
      765.900000       0.008241
      766.000000       0.008474
      766.100000       0.008706
      766.200000       0.008938
      766.300000       0.009171
      766.400000       0.009403
      766.500000       0.009637
      766.600000       0.009905
      766.700000       0.010188
      766.800000       0.010471
      766.900000       0.010753
      767.000000       0.011036
      767.100000       0.011319
      767.200000       0.011602
      767.300000       0.011885
      767.400000       0.012169
      767.500000       0.012470
      767.600000       0.012795
      767.700000       0.013120
      767.800000       0.013447
      767.900000       0.013774
      768.000000       0.014100
      768.100000       0.014427
      768.200000       0.014754
      768.300000       0.015081
      768.400000       0.015433
      768.500000       0.015940
      768.600000       0.016460
      768.700000       0.016979
      768.800000       0.017498
      768.900000       0.018017
      769.000000       0.018535
      769.100000       0.019053
      769.200000       0.019569
      769.300000       0.020087
      769.400000       0.020664
      769.500000       0.021267
      769.600000       0.021871
      769.700000       0.022467
      769.800000       0.023022
      769.900000       0.023573
      770.000000       0.024123
      770.100000       0.024674
      770.200000       0.025224
      770.300000       0.025780
      770.400000       0.026392
      770.500000       0.027025
      770.600000       0.027658
      770.700000       0.028287
      770.800000       0.028920
      770.900000       0.029554
      771.000000       0.030189
      771.100000       0.030827
      771.200000       0.031467
      771.300000       0.032112
      771.400000       0.032868
      771.500000       0.033703
      771.600000       0.034536
      771.700000       0.035369
      771.800000       0.036203
      771.900000       0.037038
      772.000000       0.037874
      772.100000       0.038710
      772.200000       0.039544
      772.300000       0.040380
      772.400000       0.041295
      772.500000       0.042321
      772.600000       0.043342
      772.700000       0.044363
      772.800000       0.045375
      772.900000       0.046345
      773.000000       0.047305
      773.100000       0.048264
      773.200000       0.049218
      773.300000       0.050174
      773.400000       0.051133
      773.500000       0.052302
      773.600000       0.053508
      773.700000       0.054713
      773.800000       0.055914
      773.900000       0.057117
      774.000000       0.058321
      774.100000       0.059525
      774.200000       0.060728
      774.300000       0.061923
      774.400000       0.063125
      774.500000       0.064431
      774.600000       0.066232
      774.700000       0.068097
      774.800000       0.069962
      774.900000       0.071827
      775.000000       0.073693
      775.100000       0.075560
      775.200000       0.077428
      775.300000       0.079300
      775.400000       0.081174
      775.500000       0.083050
      775.600000       0.085143
      775.700000       0.087752
      775.800000       0.090401
      775.900000       0.093053
      776.000000       0.095711
      776.100000       0.098374
      776.200000       0.101043
      776.300000       0.103718
      776.400000       0.106394
      776.500000       0.109079
      776.600000       0.111763
      776.700000       0.114584
      776.800000       0.117557
      776.900000       0.120532
      777.000000       0.123481
      777.100000       0.126461
      777.200000       0.129443
      777.300000       0.132424
      777.400000       0.135408
      777.500000       0.138394
      777.600000       0.141394
      777.700000       0.144381
      777.800000       0.147648
      777.900000       0.151059
      778.000000       0.154467
      778.100000       0.157873
      778.200000       0.161278
      778.300000       0.164679
      778.400000       0.168079
      778.500000       0.171479
      778.600000       0.174885
      778.700000       0.178291
      778.800000       0.181715
      778.900000       0.185907
      779.000000       0.190216
      779.100000       0.194530
      779.200000       0.198848
      779.300000       0.203175
      779.400000       0.207507
      779.500000       0.211847
      779.600000       0.216189
      779.700000       0.220495
      779.800000       0.224837
      779.900000       0.229357
      780.000000       0.234602
      780.100000       0.239923
      780.200000       0.245249
      780.300000       0.250573
      780.400000       0.255900
      780.500000       0.261223
      780.600000       0.266542
      780.700000       0.271863
      780.800000       0.277175
      780.900000       0.282408
      781.000000       0.287794
      781.100000       0.293577
      781.200000       0.299343
      781.300000       0.305137
      781.400000       0.310931
      781.500000       0.316724
      781.600000       0.322462
      781.700000       0.328248
      781.800000       0.334035
      781.900000       0.339820
      782.000000       0.345597
      782.100000       0.351536
      782.200000       0.357772
      782.300000       0.364029
      782.400000       0.370290
      782.500000       0.376558
      782.600000       0.382838
      782.700000       0.389130
      782.800000       0.395432
      782.900000       0.401749
      783.000000       0.408069
      783.100000       0.414397
      783.200000       0.420772
      783.300000       0.427304
      783.400000       0.433857
      783.500000       0.440402
      783.600000       0.446932
      783.700000       0.453444
      783.800000       0.459948
      783.900000       0.466445
      784.000000       0.472838
      784.100000       0.479117
      784.200000       0.485352
      784.300000       0.491546
      784.400000       0.497937
      784.500000       0.504345
      784.600000       0.510728
      784.700000       0.517089
      784.800000       0.523435
      784.900000       0.529761
      785.000000       0.536064
      785.100000       0.542305
      785.200000       0.548575
      785.300000       0.554833
      785.400000       0.561081
      785.500000       0.567375
      785.600000       0.573725
      785.700000       0.580133
      785.800000       0.586484
      785.900000       0.592794
      786.000000       0.599140
      786.100000       0.605508
      786.200000       0.611879
      786.300000       0.618190
      786.400000       0.624568
      786.500000       0.630948
      786.600000       0.637324
      786.700000       0.643426
      786.800000       0.649492
      786.900000       0.655531
      787.000000       0.661617
      787.100000       0.667699
      787.200000       0.673777
      787.300000       0.679848
      787.400000       0.685922
      787.500000       0.691990
      787.600000       0.698052
      787.700000       0.704119
      787.800000       0.709776
      787.900000       0.714980
      788.000000       0.720158
      788.100000       0.725326
      788.200000       0.730415
      788.300000       0.735553
      788.400000       0.740689
      788.500000       0.745814
      788.600000       0.750929
      788.700000       0.756033
      788.800000       0.760995
      788.900000       0.766032
      789.000000       0.770652
      789.100000       0.774985
      789.200000       0.779324
      789.300000       0.783687
      789.400000       0.788090
      789.500000       0.792516
      789.600000       0.796961
      789.700000       0.801427
      789.800000       0.805854
      789.900000       0.810377
      790.000000       0.814938
      790.100000       0.819352
      790.200000       0.823535
      790.300000       0.827165
      790.400000       0.830868
      790.500000       0.834548
      790.600000       0.838219
      790.700000       0.841910
      790.800000       0.845643
      790.900000       0.849406
      791.000000       0.853186
      791.100000       0.856959
      791.200000       0.860730
      791.300000       0.864510
      791.400000       0.867800
      791.500000       0.870363
      791.600000       0.873098
      791.700000       0.875837
      791.800000       0.878574
      791.900000       0.881298
      792.000000       0.884008
      792.100000       0.886705
      792.200000       0.889391
      792.300000       0.892065
      792.400000       0.894729
      792.500000       0.897386
      792.600000       0.899729
      792.700000       0.901806
      792.800000       0.903905
      792.900000       0.905925
      793.000000       0.907997
      793.100000       0.910077
      793.200000       0.912163
      793.300000       0.914169
      793.400000       0.916280
      793.500000       0.918409
      793.600000       0.920564
      793.700000       0.922753
      793.800000       0.924727
      793.900000       0.926436
      794.000000       0.928136
      794.100000       0.929839
      794.200000       0.931540
      794.300000       0.933235
      794.400000       0.934927
      794.500000       0.936616
      794.600000       0.938303
      794.700000       0.939980
      794.800000       0.941647
      794.900000       0.943295
      795.000000       0.944721
      795.100000       0.945694
      795.200000       0.946619
      795.300000       0.947554
      795.400000       0.948408
      795.500000       0.948903
      795.600000       0.949372
      795.700000       0.949859
      795.800000       0.950360
      795.900000       0.950880
      796.000000       0.951424
      796.100000       0.951990
      796.200000       0.952359
      796.300000       0.952390
      796.400000       0.952406
      796.500000       0.952328
      796.600000       0.952357
      796.700000       0.952298
      796.800000       0.952339
      796.900000       0.952356
      797.000000       0.952352
      797.100000       0.952416
      797.200000       0.952482
      797.300000       0.952545
      797.400000       0.952478
      797.500000       0.952206
      797.600000       0.951897
      797.700000       0.951579
      797.800000       0.951249
      797.900000       0.950904
      798.000000       0.950469
      798.100000       0.950048
      798.200000       0.949624
      798.300000       0.949180
      798.400000       0.948714
      798.500000       0.948241
      798.600000       0.947740
      798.700000       0.947180
      798.800000       0.946610
      798.900000       0.946040
      799.000000       0.945464
      799.100000       0.944879
      799.200000       0.944280
      799.300000       0.943665
      799.400000       0.943027
      799.500000       0.942366
      799.600000       0.941686
      799.700000       0.940983
      799.800000       0.940205
      799.900000       0.939210
      800.000000       0.938168
      800.100000       0.937051
      800.200000       0.935925
      800.300000       0.934805
      800.400000       0.933644
      800.500000       0.932428
      800.600000       0.931165
      800.700000       0.929864
      800.800000       0.928537
      800.900000       0.927194
      801.000000       0.925798
      801.100000       0.924508
      801.200000       0.923479
      801.300000       0.922534
      801.400000       0.921696
      801.500000       0.920874
      801.600000       0.920072
      801.700000       0.919293
      801.800000       0.918539
      801.900000       0.917811
      802.000000       0.917111
      802.100000       0.916449
      802.200000       0.915832
      802.300000       0.915262
      802.400000       0.914722
      802.500000       0.914206
      802.600000       0.913712
      802.700000       0.913239
      802.800000       0.912790
      802.900000       0.912361
      803.000000       0.911885
      803.100000       0.911477
      803.200000       0.911110
      803.300000       0.910757
      803.400000       0.910443
      803.500000       0.910337
      803.600000       0.910303
      803.700000       0.910265
      803.800000       0.910222
      803.900000       0.910167
      804.000000       0.910092
      804.100000       0.909993
      804.200000       0.909872
      804.300000       0.909738
      804.400000       0.909599
      804.500000       0.909457
      804.600000       0.909333
      804.700000       0.909122
      804.800000       0.908929
      804.900000       0.908858
      805.000000       0.908752
      805.100000       0.908715
      805.200000       0.908738
      805.300000       0.908809
      805.400000       0.908924
      805.500000       0.909065
      805.600000       0.909216
      805.700000       0.909361
      805.800000       0.909505
      805.900000       0.909796
      806.000000       0.910219
      806.100000       0.910635
      806.200000       0.911041
      806.300000       0.911424
      806.400000       0.911773
      806.500000       0.912082
      806.600000       0.912357
      806.700000       0.912568
      806.800000       0.912791
      806.900000       0.912932
      807.000000       0.913154
      807.100000       0.913554
      807.200000       0.913942
      807.300000       0.914305
      807.400000       0.914644
      807.500000       0.914964
      807.600000       0.915267
      807.700000       0.915557
      807.800000       0.915833
      807.900000       0.916063
      808.000000       0.916249
      808.100000       0.916404
      808.200000       0.916541
      808.300000       0.916669
      808.400000       0.916974
      808.500000       0.917295
      808.600000       0.917609
      808.700000       0.917880
      808.800000       0.918148
      808.900000       0.918475
      809.000000       0.918816
      809.100000       0.919184
      809.200000       0.919566
      809.300000       0.919993
      809.400000       0.920493
      809.500000       0.921037
      809.600000       0.921622
      809.700000       0.922230
      809.800000       0.922880
      809.900000       0.923605
      810.000000       0.924397
      810.100000       0.925265
      810.200000       0.926198
      810.300000       0.927175
      810.400000       0.928180
      810.500000       0.929228
      810.600000       0.930325
      810.700000       0.931502
      810.800000       0.932741
      810.900000       0.934082
      811.000000       0.935421
      811.100000       0.936746
      811.200000       0.938055
      811.300000       0.939332
      811.400000       0.940565
      811.500000       0.941759
      811.600000       0.942894
      811.700000       0.943973
      811.800000       0.945011
      811.900000       0.945963
      812.000000       0.946800
      812.100000       0.947600
      812.200000       0.948383
      812.300000       0.949149
      812.400000       0.949901
      812.500000       0.950638
      812.600000       0.951362
      812.700000       0.952076
      812.800000       0.952781
      812.900000       0.953481
      813.000000       0.954216
      813.100000       0.954951
      813.200000       0.955642
      813.300000       0.956321
      813.400000       0.957000
      813.500000       0.957677
      813.600000       0.958359
      813.700000       0.959002
      813.800000       0.959519
      813.900000       0.960186
      814.000000       0.960852
      814.100000       0.961514
      814.200000       0.962175
      814.300000       0.962736
      814.400000       0.963404
      814.500000       0.964071
      814.600000       0.964733
      814.700000       0.965392
      814.800000       0.966046
      814.900000       0.966695
      815.000000       0.967337
      815.100000       0.967889
      815.200000       0.968535
      815.300000       0.969181
      815.400000       0.969826
      815.500000       0.970483
      815.600000       0.971218
      815.700000       0.971997
      815.800000       0.972759
      815.900000       0.973518
      816.000000       0.974278
      816.100000       0.975042
      816.200000       0.975819
      816.300000       0.976601
      816.400000       0.977381
      816.500000       0.978165
      816.600000       0.978949
      816.700000       0.979733
      816.800000       0.980496
      816.900000       0.981246
      817.000000       0.981994
      817.100000       0.982743
      817.200000       0.983499
      817.300000       0.984264
      817.400000       0.985043
      817.500000       0.985836
      817.600000       0.986649
      817.700000       0.987483
      817.800000       0.988360
      817.900000       0.989257
      818.000000       0.990126
      818.100000       0.990963
      818.200000       0.991920
      818.300000       0.992800
      818.400000       0.993639
      818.500000       0.994446
      818.600000       0.995236
      818.700000       0.996018
      818.800000       0.996802
      818.900000       0.997591
      819.000000       0.998185
      819.100000       0.998650
      819.200000       0.998990
      819.300000       0.999140
      819.400000       0.999256
      819.500000       0.999358
      819.600000       0.999353
      819.700000       0.999440
      819.800000       0.999528
      819.900000       0.999607
      820.000000       0.999683
      820.100000       0.999767
      820.200000       0.999856
      820.300000       0.999956
      820.400000       0.999995
      820.500000       0.999696
      820.600000       0.999497
      820.700000       0.999321
      820.800000       0.999146
      820.900000       0.998973
      821.000000       0.998803
      821.100000       0.998642
      821.200000       0.998500
      821.300000       0.998376
      821.400000       0.998266
      821.500000       0.998169
      821.600000       0.998072
      821.700000       0.997919
      821.800000       0.997709
      821.900000       0.997551
      822.000000       0.997449
      822.100000       0.997359
      822.200000       0.997275
      822.300000       0.997188
      822.400000       0.997087
      822.500000       0.996960
      822.600000       0.996812
      822.700000       0.996647
      822.800000       0.996461
      822.900000       0.996242
      823.000000       0.995980
      823.100000       0.995695
      823.200000       0.995388
      823.300000       0.995056
      823.400000       0.994696
      823.500000       0.994311
      823.600000       0.993909
      823.700000       0.993494
      823.800000       0.993063
      823.900000       0.992616
      824.000000       0.992146
      824.100000       0.991588
      824.200000       0.990943
      824.300000       0.990286
      824.400000       0.989617
      824.500000       0.988927
      824.600000       0.988103
      824.700000       0.987338
      824.800000       0.986557
      824.900000       0.985762
      825.000000       0.984968
      825.100000       0.984001
      825.200000       0.982917
      825.300000       0.981675
      825.400000       0.980259
      825.500000       0.978849
      825.600000       0.977455
      825.700000       0.976084
      825.800000       0.974737
      825.900000       0.973404
      826.000000       0.972081
      826.100000       0.970771
      826.200000       0.969478
      826.300000       0.968203
      826.400000       0.966949
      826.500000       0.965643
      826.600000       0.964230
      826.700000       0.962810
      826.800000       0.961396
      826.900000       0.959987
      827.000000       0.958584
      827.100000       0.957185
      827.200000       0.955795
      827.300000       0.954403
      827.400000       0.952979
      827.500000       0.951429
      827.600000       0.949952
      827.700000       0.948456
      827.800000       0.946951
      827.900000       0.945422
      828.000000       0.943854
      828.100000       0.942255
      828.200000       0.940634
      828.300000       0.939001
      828.400000       0.937365
      828.500000       0.935736
      828.600000       0.934105
      828.700000       0.932469
      828.800000       0.930844
      828.900000       0.929249
      829.000000       0.927716
      829.100000       0.926157
      829.200000       0.924690
      829.300000       0.923274
      829.400000       0.921887
      829.500000       0.920536
      829.600000       0.919223
      829.700000       0.917940
      829.800000       0.916680
      829.900000       0.915448
      830.000000       0.914228
      830.100000       0.913018
      830.200000       0.911891
      830.300000       0.910821
      830.400000       0.909679
      830.500000       0.908622
      830.600000       0.907571
      830.700000       0.906526
      830.800000       0.905486
      830.900000       0.904447
      831.000000       0.903400
      831.100000       0.902346
      831.200000       0.901321
      831.300000       0.900671
      831.400000       0.900297
      831.500000       0.899969
      831.600000       0.899641
      831.700000       0.899310
      831.800000       0.898978
      831.900000       0.898639
      832.000000       0.898297
      832.100000       0.897951
      832.200000       0.897601
      832.300000       0.897248
      832.400000       0.896891
      832.500000       0.896533
      832.600000       0.896156
      832.700000       0.895737
      832.800000       0.895318
      832.900000       0.894898
      833.000000       0.894474
      833.100000       0.894043
      833.200000       0.893604
      833.300000       0.893165
      833.400000       0.892739
      833.500000       0.892322
      833.600000       0.891909
      833.700000       0.891500
      833.800000       0.891092
      833.900000       0.890693
      834.000000       0.890291
      834.100000       0.889893
      834.200000       0.889512
      834.300000       0.889135
      834.400000       0.888760
      834.500000       0.888380
      834.600000       0.887991
      834.700000       0.887588
      834.800000       0.887175
      834.900000       0.886756
      835.000000       0.886331
      835.100000       0.885689
      835.200000       0.884951
      835.300000       0.884254
      835.400000       0.883537
      835.500000       0.882780
      835.600000       0.882004
      835.700000       0.881221
      835.800000       0.880426
      835.900000       0.879612
      836.000000       0.878775
      836.100000       0.877907
      836.200000       0.877010
      836.300000       0.875903
      836.400000       0.874577
      836.500000       0.873233
      836.600000       0.871883
      836.700000       0.870531
      836.800000       0.869190
      836.900000       0.867861
      837.000000       0.866545
      837.100000       0.865250
      837.200000       0.863981
      837.300000       0.862731
      837.400000       0.861501
      837.500000       0.860066
      837.600000       0.858211
      837.700000       0.856296
      837.800000       0.854378
      837.900000       0.852539
      838.000000       0.850611
      838.100000       0.848677
      838.200000       0.846740
      838.300000       0.844799
      838.400000       0.842850
      838.500000       0.840886
      838.600000       0.838897
      838.700000       0.836870
      838.800000       0.834747
      838.900000       0.832164
      839.000000       0.829153
      839.100000       0.826094
      839.200000       0.822982
      839.300000       0.819827
      839.400000       0.816636
      839.500000       0.813425
      839.600000       0.810206
      839.700000       0.806973
      839.800000       0.803727
      839.900000       0.800508
      840.000000       0.797287
      840.100000       0.794086
      840.200000       0.790699
      840.300000       0.786711
      840.400000       0.782519
      840.500000       0.778388
      840.600000       0.774300
      840.700000       0.770254
      840.800000       0.766265
      840.900000       0.762372
      841.000000       0.758603
      841.100000       0.754876
      841.200000       0.751117
      841.300000       0.747220
      841.400000       0.743280
      841.500000       0.739308
      841.600000       0.734956
      841.700000       0.730176
      841.800000       0.725363
      841.900000       0.720560
      842.000000       0.715745
      842.100000       0.710906
      842.200000       0.706060
      842.300000       0.701193
      842.400000       0.696277
      842.500000       0.691302
      842.600000       0.686308
      842.700000       0.681304
      842.800000       0.676169
      842.900000       0.670657
      843.000000       0.664932
      843.100000       0.659163
      843.200000       0.653365
      843.300000       0.647529
      843.400000       0.641648
      843.500000       0.635734
      843.600000       0.629792
      843.700000       0.623837
      843.800000       0.617878
      843.900000       0.611920
      844.000000       0.605931
      844.100000       0.599693
      844.200000       0.593053
      844.300000       0.586412
      844.400000       0.579771
      844.500000       0.573146
      844.600000       0.566555
      844.700000       0.560001
      844.800000       0.553447
      844.900000       0.546911
      845.000000       0.540390
      845.100000       0.533897
      845.200000       0.527423
      845.300000       0.520968
      845.400000       0.514458
      845.500000       0.507870
      845.600000       0.501296
      845.700000       0.494621
      845.800000       0.487886
      845.900000       0.481200
      846.000000       0.474470
      846.100000       0.467743
      846.200000       0.461019
      846.300000       0.454301
      846.400000       0.447586
      846.500000       0.440910
      846.600000       0.434368
      846.700000       0.428023
      846.800000       0.421731
      846.900000       0.415459
      847.000000       0.409195
      847.100000       0.402947
      847.200000       0.396712
      847.300000       0.390521
      847.400000       0.384305
      847.500000       0.378092
      847.600000       0.371880
      847.700000       0.365669
      847.800000       0.359593
      847.900000       0.354056
      848.000000       0.348607
      848.100000       0.343192
      848.200000       0.337778
      848.300000       0.332361
      848.400000       0.326945
      848.500000       0.321528
      848.600000       0.316107
      848.700000       0.310696
      848.800000       0.305298
      848.900000       0.299859
      849.000000       0.294179
      849.100000       0.289025
      849.200000       0.284154
      849.300000       0.279282
      849.400000       0.274412
      849.500000       0.269535
      849.600000       0.264657
      849.700000       0.259771
      849.800000       0.254879
      849.900000       0.249973
      850.000000       0.245054
      850.100000       0.240128
      850.200000       0.235833
      850.300000       0.231938
      850.400000       0.228009
      850.500000       0.224085
      850.600000       0.220154
      850.700000       0.216224
      850.800000       0.212295
      850.900000       0.208370
      851.000000       0.204467
      851.100000       0.200546
      851.200000       0.196637
      851.300000       0.192905
      851.400000       0.189486
      851.500000       0.186057
      851.600000       0.182632
      851.700000       0.179207
      851.800000       0.175786
      851.900000       0.172371
      852.000000       0.168957
      852.100000       0.165546
      852.200000       0.162135
      852.300000       0.158727
      852.400000       0.155451
      852.500000       0.152444
      852.600000       0.149473
      852.700000       0.146497
      852.800000       0.143520
      852.900000       0.140544
      853.000000       0.137572
      853.100000       0.134599
      853.200000       0.131615
      853.300000       0.128646
      853.400000       0.125683
      853.500000       0.122859
      853.600000       0.120490
      853.700000       0.118227
      853.800000       0.115968
      853.900000       0.113709
      854.000000       0.111453
      854.100000       0.109199
      854.200000       0.106944
      854.300000       0.104690
      854.400000       0.102434
      854.500000       0.100173
      854.600000       0.097985
      854.700000       0.096126
      854.800000       0.094388
      854.900000       0.092648
      855.000000       0.090906
      855.100000       0.089165
      855.200000       0.087426
      855.300000       0.085691
      855.400000       0.083959
      855.500000       0.082232
      855.600000       0.080507
      855.700000       0.078827
      855.800000       0.077366
      855.900000       0.076056
      856.000000       0.074752
      856.100000       0.073448
      856.200000       0.072148
      856.300000       0.070852
      856.400000       0.069560
      856.500000       0.068273
      856.600000       0.066989
      856.700000       0.065717
      856.800000       0.064434
      856.900000       0.063417
      857.000000       0.062570
      857.100000       0.061724
      857.200000       0.060884
      857.300000       0.060039
      857.400000       0.059194
      857.500000       0.058350
      857.600000       0.057505
      857.700000       0.056659
      857.800000       0.055813
      857.900000       0.054961
      858.000000       0.054235
      858.100000       0.053625
      858.200000       0.053026
      858.300000       0.052427
      858.400000       0.051829
      858.500000       0.051233
      858.600000       0.050637
      858.700000       0.050042
      858.800000       0.049448
      858.900000       0.048859
      859.000000       0.048282
      859.100000       0.047664
      859.200000       0.046956
      859.300000       0.046239
      859.400000       0.045522
      859.500000       0.044805
      859.600000       0.044089
      859.700000       0.043372
      859.800000       0.042650
      859.900000       0.041933
      860.000000       0.041216
      860.100000       0.040497
      860.200000       0.039773
      860.300000       0.038998
      860.400000       0.038200
      860.500000       0.037400
      860.600000       0.036604
      860.700000       0.035809
      860.800000       0.035014
      860.900000       0.034219
      861.000000       0.033425
      861.100000       0.032631
      861.200000       0.031838
      861.300000       0.031042
      861.400000       0.030316
      861.500000       0.029679
      861.600000       0.029046
      861.700000       0.028412
      861.800000       0.027779
      861.900000       0.027146
      862.000000       0.026512
      862.100000       0.025878
      862.200000       0.025243
      862.300000       0.024605
      862.400000       0.023884
      862.500000       0.023256
      862.600000       0.022877
      862.700000       0.022531
      862.800000       0.022185
      862.900000       0.021836
      863.000000       0.021489
      863.100000       0.021143
      863.200000       0.020796
      863.300000       0.020448
      863.400000       0.020113
      863.500000       0.019881
      863.600000       0.019690
      863.700000       0.019499
      863.800000       0.019308
      863.900000       0.019118
      864.000000       0.018929
      864.100000       0.018740
      864.200000       0.018552
      864.300000       0.018365
      864.400000       0.018177
      864.500000       0.017989
      864.600000       0.017801
      864.700000       0.017613
      864.800000       0.017425
      864.900000       0.017238
      865.000000       0.017053
      865.100000       0.016867
      865.200000       0.016683
      865.300000       0.016481
      865.400000       0.016203
      865.500000       0.015901
      865.600000       0.015600
      865.700000       0.015300
      865.800000       0.015000
      865.900000       0.014700
      866.000000       0.014400
      866.100000       0.014099
      866.200000       0.013807
      866.300000       0.013667
      866.400000       0.013653
      866.500000       0.013646
      866.600000       0.013638
      866.700000       0.013630
      866.800000       0.013622
      866.900000       0.013614
      867.000000       0.013606
      867.100000       0.013599
      867.200000       0.013614
      867.300000       0.013698
      867.400000       0.013793
      867.500000       0.013889
      867.600000       0.013984
      867.700000       0.014080
      867.800000       0.014177
      867.900000       0.014275
      868.000000       0.014372
      868.100000       0.014464
      868.200000       0.014497
      868.300000       0.014498
      868.400000       0.014500
      868.500000       0.014501
      868.600000       0.014502
      868.700000       0.014503
      868.800000       0.014504
      868.900000       0.014505
      869.000000       0.014503
      869.100000       0.014433
      869.200000       0.014224
      869.300000       0.014006
      869.400000       0.013789
      869.500000       0.013572
      869.600000       0.013355
      869.700000       0.013139
      869.800000       0.012924
      869.900000       0.012708
      870.000000       0.012501
      870.100000       0.012334
      870.200000       0.012183
      870.300000       0.012032
      870.400000       0.011881
      870.500000       0.011730
      870.600000       0.011579
      870.700000       0.011428
      870.800000       0.011278
      870.900000       0.011127
      871.000000       0.010922
      871.100000       0.010655
      871.200000       0.010387
      871.300000       0.010118
      871.400000       0.009850
      871.500000       0.009581
      871.600000       0.009313
      871.700000       0.009045
      871.800000       0.008774
      871.900000       0.008540
      872.000000       0.008415
      872.100000       0.008318
      872.200000       0.008221
      872.300000       0.008123
      872.400000       0.008026
      872.500000       0.007928
      872.600000       0.007831
      872.700000       0.007734
      872.800000       0.007636
      872.900000       0.007564
      873.000000       0.007506
      873.100000       0.007448
      873.200000       0.007390
      873.300000       0.007332
      873.400000       0.007275
      873.500000       0.007218
      873.600000       0.007161
      873.700000       0.007102
      873.800000       0.007082
      873.900000       0.007130
      874.000000       0.007190
      874.100000       0.007250
      874.200000       0.007310
      874.300000       0.007370
      874.400000       0.007430
      874.500000       0.007489
      874.600000       0.007551
      874.700000       0.007581
      874.800000       0.007446
      874.900000       0.007211
      875.000000       0.006977
      875.100000       0.006743
      875.200000       0.006509
      875.300000       0.006276
      875.400000       0.006043
      875.500000       0.005810
      875.600000       0.005580
      875.700000       0.005450
      875.800000       0.005458
      875.900000       0.005483
      876.000000       0.005509
      876.100000       0.005534
      876.200000       0.005559
      876.300000       0.005585
      876.400000       0.005610
      876.500000       0.005636
      876.600000       0.005663
      876.700000       0.005701
      876.800000       0.005743
      876.900000       0.005785
      877.000000       0.005826
      877.100000       0.005868
      877.200000       0.005909
      877.300000       0.005951
      877.400000       0.005992
      877.500000       0.006035
      877.600000       0.006118
      877.700000       0.006255
      877.800000       0.006389
      877.900000       0.006523
      878.000000       0.006657
      878.100000       0.006792
      878.200000       0.006926
      878.300000       0.007060
      878.400000       0.007195
      878.500000       0.007321
      878.600000       0.007427
      878.700000       0.007528
      878.800000       0.007628
      878.900000       0.007729
      879.000000       0.007829
      879.100000       0.007929
      879.200000       0.008029
      879.300000       0.008128
      879.400000       0.008235
      879.500000       0.008244
      879.600000       0.008218
      879.700000       0.008191
      879.800000       0.008164
      879.900000       0.008137
      880.000000       0.008110
      880.100000       0.008082
      880.200000       0.008054
      880.300000       0.008026
      880.400000       0.008006
      880.500000       0.008000
      880.600000       0.007996
      880.700000       0.007991
      880.800000       0.007987
      880.900000       0.007983
      881.000000       0.007979
      881.100000       0.007975
      881.200000       0.007972
      881.300000       0.007968
      881.400000       0.007935
      881.500000       0.007894
      881.600000       0.007854
      881.700000       0.007813
      881.800000       0.007774
      881.900000       0.007734
      882.000000       0.007696
      882.100000       0.007655
      882.200000       0.007635
      882.300000       0.007538
      882.400000       0.007403
      882.500000       0.007273
      882.600000       0.007144
      882.700000       0.007009
      882.800000       0.006881
      882.900000       0.006751
      883.000000       0.006625
      883.100000       0.006628
      883.200000       0.006631
      883.300000       0.006635
      883.400000       0.006638
      883.500000       0.006641
      883.600000       0.006650
      883.700000       0.006655
      883.800000       0.006658
      883.900000       0.006660
      884.000000       0.006647
      884.100000       0.006569
      884.200000       0.006469
      884.300000       0.006368
      884.400000       0.006268
      884.500000       0.006168
      884.600000       0.006067
      884.700000       0.005966
      884.800000       0.005866
      884.900000       0.005765
      885.000000       0.005669
      885.100000       0.005590
      885.200000       0.005514
      885.300000       0.005430
      885.400000       0.005355
      885.500000       0.005281
      885.600000       0.004806
      885.700000       0.004202
      885.800000       0.003602
      885.900000       0.003001
      886.000000       0.002443
      886.100000       0.002252
      886.200000       0.002268
      886.300000       0.002301
      886.400000       0.002333
      886.500000       0.002365
      886.600000       0.002398
      886.700000       0.002430
      886.800000       0.002462
      886.900000       0.002495
      887.000000       0.002521
      887.100000       0.002530
      887.200000       0.002539
      887.300000       0.002548
      887.400000       0.002557
      887.500000       0.002565
      887.600000       0.002574
      887.700000       0.002583
      887.800000       0.002592
      887.900000       0.002596
      888.000000       0.002583
      888.100000       0.002560
      888.200000       0.002537
      888.300000       0.002514
      888.400000       0.002491
      888.500000       0.002468
      888.600000       0.002444
      888.700000       0.002421
      888.800000       0.002399
      888.900000       0.002336
      889.000000       0.002229
      889.100000       0.002119
      889.200000       0.002009
      889.300000       0.001899
      889.400000       0.001788
      889.500000       0.001678
      889.600000       0.001567
      889.700000       0.001453
      889.800000       0.001401
      889.900000       0.001538
      890.000000       0.001740
      890.100000       0.001938
      890.200000       0.002135
      890.300000       0.002333
      890.400000       0.002530
      890.500000       0.002728
      890.600000       0.002925
      890.700000       0.003121
      890.800000       0.003281
      890.900000       0.003408
      891.000000       0.003535
      891.100000       0.003663
      891.200000       0.003791
      891.300000       0.003918
      891.400000       0.004046
      891.500000       0.004174
      891.600000       0.004303
      891.700000       0.004403
      891.800000       0.004433
      891.900000       0.004451
      892.000000       0.004469
      892.100000       0.004487
      892.200000       0.004505
      892.300000       0.004523
      892.400000       0.004541
      892.500000       0.004558
      892.600000       0.004578
      892.700000       0.004416
      892.800000       0.004186
      892.900000       0.003955
      893.000000       0.003725
      893.100000       0.003494
      893.200000       0.003263
      893.300000       0.003033
      893.400000       0.002802
      893.500000       0.002570
      893.600000       0.002323
      893.700000       0.002046
      893.800000       0.001766
      893.900000       0.001486
      894.000000       0.001206
      894.100000       0.000927
