52,   52, MVIRI VIS channel from srf_MET7_2004033_2004034_1801-Release_S10EE_10.dat
Number of data points:
793
Wavenumber (cm-1)   Filter response
     8442.380800       0.000000
     8449.514200       0.000000
     8456.659600       0.000004
     8463.817200       0.000054
     8470.986900       0.000161
     8478.168700       0.000322
     8485.362700       0.000535
     8492.569000       0.000801
     8499.787500       0.001116
     8507.018300       0.001479
     8514.261400       0.001889
     8521.516800       0.002345
     8528.784600       0.002846
     8536.064900       0.003390
     8543.357500       0.003975
     8550.662700       0.004602
     8557.980300       0.005268
     8565.310500       0.005972
     8572.653200       0.006715
     8580.008600       0.007494
     8587.376600       0.008309
     8594.757200       0.009158
     8602.150500       0.010041
     8609.556600       0.010958
     8616.975400       0.011906
     8624.407100       0.012887
     8631.851500       0.013898
     8639.308900       0.014938
     8646.779100       0.016009
     8654.262200       0.017108
     8661.758300       0.018235
     8669.267400       0.019390
     8676.789600       0.020572
     8684.324800       0.021781
     8691.873100       0.023015
     8699.434500       0.024275
     8707.009100       0.025560
     8714.596900       0.026870
     8722.198000       0.028205
     8729.812300       0.029563
     8737.439900       0.030944
     8745.080900       0.032349
     8752.735200       0.033777
     8760.403000       0.035228
     8768.084200       0.036701
     8775.778900       0.038196
     8783.487000       0.039713
     8791.208800       0.041252
     8798.944100       0.042813
     8806.693100       0.044395
     8814.455700       0.045998
     8822.232000       0.047622
     8830.022100       0.049267
     8837.825900       0.050933
     8845.643500       0.052619
     8853.475000       0.054326
     8861.320300       0.056054
     8869.179600       0.057802
     8877.052800       0.059571
     8884.940000       0.061360
     8892.841300       0.063170
     8900.756600       0.065000
     8908.686000       0.066850
     8916.629500       0.068720
     8924.587200       0.070611
     8932.559200       0.072522
     8940.545400       0.074454
     8948.545900       0.076406
     8956.560700       0.078378
     8964.589900       0.080371
     8972.633500       0.082384
     8980.691500       0.084418
     8988.764000       0.086473
     8996.851100       0.088548
     9004.952700       0.090645
     9013.068900       0.092761
     9021.199800       0.094899
     9029.345400       0.097058
     9037.505600       0.099238
     9045.680700       0.101439
     9053.870500       0.103661
     9062.075200       0.105905
     9070.294800       0.108170
     9078.529300       0.110457
     9086.778700       0.112765
     9095.043200       0.115095
     9103.322700       0.117446
     9111.617300       0.119820
     9119.927000       0.122215
     9128.251900       0.124633
     9136.592100       0.127073
     9144.947400       0.129534
     9153.318100       0.132019
     9161.704100       0.134525
     9170.105500       0.137055
     9178.522300       0.139606
     9186.954500       0.142181
     9195.402300       0.144778
     9203.865600       0.147398
     9212.344500       0.150041
     9220.839100       0.152707
     9229.349300       0.155396
     9237.875300       0.158108
     9246.417000       0.160843
     9254.974500       0.163602
     9263.547900       0.166383
     9272.137200       0.169188
     9280.742500       0.172017
     9289.363700       0.174869
     9298.000900       0.177744
     9306.654300       0.180643
     9315.323700       0.183566
     9324.009300       0.186512
     9332.711200       0.189482
     9341.429200       0.192475
     9350.163600       0.195491
     9358.914400       0.198532
     9367.681500       0.201596
     9376.465100       0.204684
     9385.265100       0.207795
     9394.081700       0.210930
     9402.914900       0.214088
     9411.764700       0.217270
     9420.631200       0.220475
     9429.514400       0.223704
     9438.414300       0.226956
     9447.331100       0.230232
     9456.264800       0.233531
     9465.215300       0.236853
     9474.182900       0.240198
     9483.167400       0.243567
     9492.169000       0.246958
     9501.187600       0.250373
     9510.223500       0.253810
     9519.276500       0.257270
     9528.346800       0.260753
     9537.434400       0.264258
     9546.539400       0.267785
     9555.661700       0.271335
     9564.801500       0.274907
     9573.958800       0.278501
     9583.133700       0.282117
     9592.326100       0.285754
     9601.536200       0.289414
     9610.764100       0.293094
     9620.009600       0.296796
     9629.273000       0.300519
     9638.554200       0.304262
     9647.853400       0.308026
     9657.170400       0.311811
     9666.505600       0.315616
     9675.858700       0.319441
     9685.230000       0.323286
     9694.619500       0.327151
     9704.027200       0.331034
     9713.453100       0.334938
     9722.897400       0.338860
     9732.360100       0.342800
     9741.841200       0.346760
     9751.340800       0.350737
     9760.859000       0.354732
     9770.395700       0.358745
     9779.951100       0.362775
     9789.525200       0.366823
     9799.118100       0.370888
     9808.729800       0.374968
     9818.360300       0.379065
     9828.009800       0.383178
     9837.678300       0.387307
     9847.365800       0.391451
     9857.072400       0.395610
     9866.798200       0.399783
     9876.543200       0.403971
     9886.307500       0.408173
     9896.091000       0.412389
     9905.894000       0.416618
     9915.716400       0.420860
     9925.558300       0.425114
     9935.419800       0.429382
     9945.300800       0.433661
     9955.201600       0.437951
     9965.122100       0.442252
     9975.062300       0.446565
     9985.022500       0.450888
     9995.002500       0.455221
    10005.002500       0.459563
    10015.022500       0.463915
    10025.062700       0.468276
    10035.122900       0.472645
    10045.203400       0.477022
    10055.304200       0.481407
    10065.425300       0.485799
    10075.566800       0.490198
    10085.728700       0.494604
    10095.911200       0.499015
    10106.114200       0.503432
    10116.337900       0.507855
    10126.582300       0.512282
    10136.847400       0.516713
    10147.133400       0.521148
    10157.440300       0.525587
    10167.768200       0.530029
    10178.117000       0.534473
    10188.487000       0.538919
    10198.878100       0.543368
    10209.290500       0.547817
    10219.724100       0.552267
    10230.179000       0.556717
    10240.655400       0.561168
    10251.153300       0.565618
    10261.672700       0.570066
    10272.213700       0.574514
    10282.776300       0.578959
    10293.360800       0.583402
    10303.967000       0.587842
    10314.595200       0.592279
    10325.245200       0.596712
    10335.917300       0.601141
    10346.611500       0.605565
    10357.327800       0.609984
    10368.066400       0.614397
    10378.827200       0.618804
    10389.610400       0.623205
    10400.416000       0.627598
    10411.244100       0.631984
    10422.094800       0.636362
    10432.968200       0.640732
    10443.864200       0.645093
    10454.783100       0.649444
    10465.724800       0.653786
    10476.689400       0.658117
    10487.677000       0.662438
    10498.687700       0.666747
    10509.721500       0.671045
    10520.778500       0.675331
    10531.858900       0.679604
    10542.962600       0.683864
    10554.089700       0.688110
    10565.240400       0.692343
    10576.414600       0.696561
    10587.612500       0.700764
    10598.834100       0.704952
    10610.079600       0.709125
    10621.348900       0.713281
    10632.642200       0.717420
    10643.959600       0.721543
    10655.301000       0.725647
    10666.666700       0.729734
    10678.056600       0.733803
    10689.470900       0.737852
    10700.909600       0.741883
    10712.372800       0.745894
    10723.860600       0.749884
    10735.373100       0.753855
    10746.910300       0.757804
    10758.472300       0.761732
    10770.059200       0.765638
    10781.671200       0.769522
    10793.308100       0.773383
    10804.970300       0.777222
    10816.657700       0.781037
    10828.370300       0.784829
    10840.108400       0.788596
    10851.871900       0.792338
    10863.661100       0.796056
    10875.475800       0.799749
    10887.316300       0.803416
    10899.182600       0.807056
    10911.074700       0.810671
    10922.992900       0.814258
    10934.937100       0.817819
    10946.907500       0.821352
    10958.904100       0.824857
    10970.927000       0.828334
    10982.976400       0.831783
    10995.052200       0.835202
    11007.154700       0.838593
    11019.283700       0.841954
    11031.439600       0.845285
    11043.622300       0.848586
    11055.832000       0.851857
    11068.068600       0.855097
    11080.332400       0.858306
    11092.623400       0.861483
    11104.941700       0.864629
    11117.287400       0.867743
    11129.660500       0.870825
    11142.061300       0.873874
    11154.489700       0.876891
    11166.945800       0.879875
    11179.429800       0.882825
    11191.941800       0.885742
    11204.481800       0.888625
    11217.049900       0.891475
    11229.646300       0.894290
    11242.270900       0.897070
    11254.924000       0.899816
    11267.605600       0.902527
    11280.315800       0.905203
    11293.054800       0.907844
    11305.822500       0.910449
    11318.619100       0.913019
    11331.444800       0.915553
    11344.299500       0.918050
    11357.183400       0.920512
    11370.096600       0.922937
    11383.039300       0.925326
    11396.011400       0.927678
    11409.013100       0.929993
    11422.044500       0.932271
    11435.105800       0.934513
    11448.196900       0.936716
    11461.318100       0.938883
    11474.469300       0.941012
    11487.650800       0.943104
    11500.862600       0.945158
    11514.104800       0.947174
    11527.377500       0.949152
    11540.680900       0.951092
    11554.015000       0.952995
    11567.380000       0.954859
    11580.775900       0.956686
    11594.202900       0.958474
    11607.661100       0.960223
    11621.150500       0.961935
    11634.671300       0.963608
    11648.223600       0.965243
    11661.807600       0.966840
    11675.423200       0.968398
    11689.070700       0.969918
    11702.750100       0.971399
    11716.461600       0.972842
    11730.205300       0.974247
    11743.981200       0.975614
    11757.789500       0.976942
    11771.630400       0.978232
    11785.503800       0.979483
    11799.410000       0.980697
    11813.349100       0.981872
    11827.321100       0.983009
    11841.326200       0.984108
    11855.364600       0.985169
    11869.436200       0.986193
    11883.541300       0.987179
    11897.680000       0.988126
    11911.852300       0.989037
    11926.058400       0.989910
    11940.298500       0.990745
    11954.572600       0.991543
    11968.880900       0.992305
    11983.223500       0.993029
    11997.600500       0.993716
    12012.012000       0.994367
    12026.458200       0.994981
    12040.939200       0.995558
    12055.455100       0.996100
    12070.006000       0.996605
    12084.592100       0.997074
    12099.213600       0.997508
    12113.870400       0.997906
    12128.562800       0.998269
    12143.290800       0.998597
    12158.054700       0.998889
    12172.854500       0.999147
    12187.690400       0.999371
    12202.562500       0.999560
    12217.471000       0.999715
    12232.415900       0.999836
    12247.397400       0.999924
    12262.415700       0.999979
    12277.470800       1.000000
    12292.563000       0.999989
    12307.692300       0.999944
    12322.858900       0.999868
    12338.062900       0.999760
    12353.304500       0.999620
    12368.583800       0.999448
    12383.900900       0.999245
    12399.256000       0.999012
    12414.649300       0.998747
    12430.080800       0.998453
    12445.550700       0.998128
    12461.059200       0.997774
    12476.606400       0.997391
    12492.192400       0.996978
    12507.817400       0.996537
    12523.481500       0.996067
    12539.185000       0.995570
    12554.927800       0.995045
    12570.710200       0.994492
    12586.532400       0.993912
    12602.394500       0.993306
    12618.296500       0.992674
    12634.238800       0.992015
    12650.221400       0.991331
    12666.244500       0.990622
    12682.308200       0.989888
    12698.412700       0.989130
    12714.558200       0.988348
    12730.744700       0.987542
    12746.972600       0.986713
    12763.241900       0.985860
    12779.552700       0.984986
    12795.905300       0.984089
    12812.299800       0.983171
    12828.736400       0.982231
    12845.215200       0.981270
    12861.736300       0.980289
    12878.300100       0.979288
    12894.906500       0.978268
    12911.555800       0.977228
    12928.248200       0.976169
    12944.983800       0.975092
    12961.762800       0.973997
    12978.585300       0.972885
    12995.451600       0.971755
    13012.361700       0.970609
    13029.316000       0.969446
    13046.314400       0.968268
    13063.357300       0.967075
    13080.444700       0.965866
    13097.576900       0.964643
    13114.754100       0.963406
    13131.976400       0.962156
    13149.243900       0.960892
    13166.556900       0.959616
    13183.915600       0.958327
    13201.320100       0.957027
    13218.770700       0.955715
    13236.267400       0.954392
    13253.810500       0.953059
    13271.400100       0.951716
    13289.036500       0.950364
    13306.719900       0.949002
    13324.450400       0.947632
    13342.228200       0.946253
    13360.053400       0.944867
    13377.926400       0.943473
    13395.847300       0.942073
    13413.816200       0.940666
    13431.833400       0.939254
    13449.899100       0.937835
    13468.013500       0.936412
    13486.176700       0.934985
    13504.388900       0.933553
    13522.650400       0.932117
    13540.961400       0.930678
    13559.322000       0.929237
    13577.732500       0.927793
    13596.193100       0.926347
    13614.703900       0.924899
    13633.265200       0.923451
    13651.877100       0.922002
    13670.540000       0.920553
    13689.253900       0.919104
    13708.019200       0.917656
    13726.836000       0.916209
    13745.704500       0.914763
    13764.624900       0.913320
    13783.597500       0.911879
    13802.622500       0.910441
    13821.700100       0.909006
    13840.830400       0.907574
    13860.013900       0.906147
    13879.250500       0.904724
    13898.540700       0.903307
    13917.884500       0.901894
    13937.282200       0.900487
    13956.734100       0.899086
    13976.240400       0.897692
    13995.801300       0.896304
    14015.417000       0.894924
    14035.087700       0.893551
    14054.813800       0.892187
    14074.595400       0.890830
    14094.432700       0.889483
    14114.326000       0.888144
    14134.275600       0.886815
    14154.281700       0.885496
    14174.344400       0.884187
    14194.464200       0.882889
    14214.641100       0.881601
    14234.875400       0.880324
    14255.167500       0.879059
    14275.517500       0.877806
    14295.925700       0.876565
    14316.392300       0.875337
    14336.917600       0.874121
    14357.501800       0.872918
    14378.145200       0.871729
    14398.848100       0.870553
    14419.610700       0.869391
    14440.433200       0.868244
    14461.316000       0.867111
    14482.259200       0.865993
    14503.263200       0.864890
    14524.328200       0.863802
    14545.454500       0.862730
    14566.642400       0.861673
    14587.892000       0.860633
    14609.203800       0.859608
    14630.577900       0.858601
    14652.014700       0.857610
    14673.514300       0.856635
    14695.077100       0.855678
    14716.703500       0.854739
    14738.393500       0.853816
    14760.147600       0.852912
    14781.966000       0.852025
    14803.849000       0.851156
    14825.796900       0.850305
    14847.809900       0.849473
    14869.888500       0.848659
    14892.032800       0.847864
    14914.243100       0.847087
    14936.519800       0.846329
    14958.863100       0.845591
    14981.273400       0.844871
    15003.750900       0.844170
    15026.296000       0.843489
    15048.909000       0.842826
    15071.590100       0.842184
    15094.339600       0.841560
    15117.158000       0.840957
    15140.045400       0.840372
    15163.002300       0.839807
    15186.028900       0.839262
    15209.125500       0.838737
    15232.292500       0.838231
    15255.530100       0.837745
    15278.838800       0.837278
    15302.218800       0.836831
    15325.670500       0.836403
    15349.194200       0.835995
    15372.790200       0.835607
    15396.458800       0.835238
    15420.200500       0.834888
    15444.015400       0.834558
    15467.904100       0.834247
    15491.866800       0.833955
    15515.903800       0.833682
    15540.015500       0.833428
    15564.202300       0.833192
    15588.464500       0.832976
    15612.802500       0.832778
    15637.216600       0.832598
    15661.707100       0.832437
    15686.274500       0.832294
    15710.919100       0.832169
    15735.641200       0.832061
    15760.441300       0.831971
    15785.319700       0.831898
    15810.276700       0.831842
    15835.312700       0.831804
    15860.428200       0.831782
    15885.623500       0.831776
    15910.899000       0.831786
    15936.255000       0.831813
    15961.691900       0.831855
    15987.210200       0.831912
    16012.810200       0.831984
    16038.492400       0.832072
    16064.257000       0.832173
    16090.104600       0.832289
    16116.035500       0.832418
    16142.050000       0.832561
    16168.148700       0.832718
    16194.332000       0.832886
    16220.600200       0.833068
    16246.953700       0.833261
    16273.393000       0.833466
    16299.918500       0.833682
    16326.530600       0.833909
    16353.229800       0.834146
    16380.016400       0.834394
    16406.890900       0.834651
    16433.853700       0.834917
    16460.905300       0.835191
    16488.046200       0.835474
    16515.276600       0.835765
    16542.597200       0.836063
    16570.008300       0.836367
    16597.510400       0.836678
    16625.103900       0.836995
    16652.789300       0.837317
    16680.567100       0.837643
    16708.437800       0.837974
    16736.401700       0.838308
    16764.459300       0.838646
    16792.611300       0.838986
    16820.857900       0.839328
    16849.199700       0.839671
    16877.637100       0.840015
    16906.170800       0.840359
    16934.801000       0.840703
    16963.528400       0.841046
    16992.353400       0.841387
    17021.276600       0.841727
    17050.298400       0.842063
    17079.419300       0.842395
    17108.639900       0.842724
    17137.960600       0.843048
    17167.382000       0.843366
    17196.904600       0.843678
    17226.528900       0.843983
    17256.255400       0.844281
    17286.084700       0.844570
    17316.017300       0.844851
    17346.053800       0.845122
    17376.194600       0.845383
    17406.440400       0.845632
    17436.791600       0.845870
    17467.248900       0.846096
    17497.812800       0.846308
    17528.483800       0.846506
    17559.262500       0.846690
    17590.149500       0.846858
    17621.145400       0.847010
    17652.250700       0.847144
    17683.466000       0.847262
    17714.791900       0.847360
    17746.228900       0.847440
    17777.777800       0.847499
    17809.439000       0.847537
    17841.213200       0.847554
    17873.101000       0.847548
    17905.103000       0.847520
    17937.219700       0.847467
    17969.451900       0.847389
    18001.800200       0.847286
    18034.265100       0.847156
    18066.847300       0.846999
    18099.547500       0.846814
    18132.366300       0.846599
    18165.304300       0.846356
    18198.362100       0.846081
    18231.540600       0.845776
    18264.840200       0.845438
    18298.261700       0.845067
    18331.805700       0.844663
    18365.472900       0.844223
    18399.264000       0.843749
    18433.179700       0.843238
    18467.220700       0.842689
    18501.387600       0.842103
    18535.681200       0.841478
    18570.102100       0.840814
    18604.651200       0.840109
    18639.329000       0.839363
    18674.136300       0.838574
    18709.073900       0.837743
    18744.142500       0.836869
    18779.342700       0.835949
    18814.675400       0.834985
    18850.141400       0.833974
    18885.741300       0.832916
    18921.475900       0.831811
    18957.346000       0.830657
    18993.352300       0.829454
    19029.495700       0.828200
    19065.776900       0.826896
    19102.196800       0.825540
    19138.756000       0.824132
    19175.455400       0.822671
    19212.295900       0.821155
    19249.278200       0.819585
    19286.403100       0.817960
    19323.671500       0.816278
    19361.084200       0.814540
    19398.642100       0.812743
    19436.346000       0.810889
    19474.196700       0.808975
    19512.195100       0.807002
    19550.342100       0.804968
    19588.638600       0.802874
    19627.085400       0.800717
    19665.683400       0.798498
    19704.433500       0.796216
    19743.336600       0.793870
    19782.393700       0.791461
    19821.605600       0.788986
    19860.973200       0.786445
    19900.497500       0.783839
    19940.179500       0.781166
    19980.020000       0.778426
    20020.020000       0.775618
    20060.180500       0.772742
    20100.502500       0.769797
    20140.986900       0.766783
    20181.634700       0.763699
    20222.446900       0.760545
    20263.424500       0.757320
    20304.568500       0.754024
    20345.880000       0.750657
    20387.359800       0.747218
    20429.009200       0.743707
    20470.829100       0.740123
    20512.820500       0.736466
    20554.984600       0.732736
    20597.322300       0.728933
    20639.834900       0.725055
    20682.523300       0.721104
    20725.388600       0.717079
    20768.432000       0.712979
    20811.654500       0.708805
    20855.057400       0.704555
    20898.641600       0.700231
    20942.408400       0.695832
    20986.358900       0.691358
    21030.494200       0.686809
    21074.815600       0.682184
    21119.324200       0.677485
    21164.021200       0.672710
    21208.907700       0.667860
    21253.985100       0.662935
    21299.254500       0.657936
    21344.717200       0.652861
    21390.374300       0.647712
    21436.227200       0.642489
    21482.277100       0.637192
    21528.525300       0.631821
    21574.973000       0.626376
    21621.621600       0.620858
    21668.472400       0.615267
    21715.526600       0.609604
    21762.785600       0.603869
    21810.250800       0.598062
    21857.923500       0.592185
    21905.805000       0.586237
    21953.896800       0.580219
    22002.200200       0.574131
    22050.716600       0.567976
    22099.447500       0.561752
    22148.394200       0.555461
    22197.558300       0.549104
    22246.941000       0.542681
    22296.544000       0.536194
    22346.368700       0.529643
    22396.416600       0.523029
    22446.689100       0.516353
    22497.187900       0.509617
    22547.914300       0.502820
    22598.870100       0.495965
    22650.056600       0.489053
    22701.475600       0.482085
    22753.128600       0.475062
    22805.017100       0.467985
    22857.142900       0.460856
    22909.507400       0.453676
    22962.112500       0.446447
    23014.959700       0.439171
    23068.050700       0.431848
    23121.387300       0.424480
    23174.971000       0.417070
    23228.803700       0.409618
    23282.887100       0.402127
    23337.222900       0.394599
    23391.812900       0.387035
    23446.658900       0.379437
    23501.762600       0.371808
    23557.126000       0.364149
    23612.750900       0.356463
    23668.639100       0.348752
    23724.792400       0.341018
    23781.212800       0.333263
    23837.902300       0.325490
    23894.862600       0.317702
    23952.095800       0.309899
    24009.603800       0.302087
    24067.388700       0.294266
    24125.452400       0.286440
    24183.796900       0.278612
    24242.424200       0.270784
    24301.336600       0.262959
    24360.535900       0.255140
    24420.024400       0.247331
    24479.804200       0.239534
    24539.877300       0.231753
    24600.246000       0.223991
    24660.912500       0.216250
    24721.878900       0.208536
    24783.147500       0.200851
    24844.720500       0.193199
    24906.600200       0.185583
    24968.789000       0.178007
    25031.289100       0.170475
    25094.102900       0.162991
    25157.232700       0.155559
    25220.681000       0.148183
    25284.450100       0.140867
    25348.542500       0.133615
    25412.960600       0.126432
    25477.707000       0.119322
