28,   28, MVIRI VIS channel from srf_MET4_1992348_1992349_1801-Release_S10EL_10.dat
Number of data points:
752
Wavenumber (cm-1)   Filter response
     8745.080900       0.000000
     8752.735200       0.000000
     8760.403000       0.000001
     8768.084200       0.000059
     8775.778900       0.000201
     8783.487000       0.000423
     8791.208800       0.000723
     8798.944100       0.001100
     8806.693100       0.001550
     8814.455700       0.002072
     8822.232000       0.002663
     8830.022100       0.003322
     8837.825900       0.004046
     8845.643500       0.004833
     8853.475000       0.005681
     8861.320300       0.006589
     8869.179600       0.007555
     8877.052800       0.008577
     8884.940000       0.009653
     8892.841300       0.010781
     8900.756600       0.011961
     8908.686000       0.013190
     8916.629500       0.014467
     8924.587200       0.015791
     8932.559200       0.017160
     8940.545400       0.018573
     8948.545900       0.020029
     8956.560700       0.021526
     8964.589900       0.023063
     8972.633500       0.024640
     8980.691500       0.026254
     8988.764000       0.027905
     8996.851100       0.029592
     9004.952700       0.031314
     9013.068900       0.033069
     9021.199800       0.034857
     9029.345400       0.036678
     9037.505600       0.038530
     9045.680700       0.040412
     9053.870500       0.042323
     9062.075200       0.044264
     9070.294800       0.046232
     9078.529300       0.048228
     9086.778700       0.050251
     9095.043200       0.052300
     9103.322700       0.054374
     9111.617300       0.056473
     9119.927000       0.058597
     9128.251900       0.060744
     9136.592100       0.062915
     9144.947400       0.065109
     9153.318100       0.067325
     9161.704100       0.069563
     9170.105500       0.071823
     9178.522300       0.074105
     9186.954500       0.076406
     9195.402300       0.078729
     9203.865600       0.081071
     9212.344500       0.083433
     9220.839100       0.085816
     9229.349300       0.088217
     9237.875300       0.090637
     9246.417000       0.093076
     9254.974500       0.095534
     9263.547900       0.098010
     9272.137200       0.100504
     9280.742500       0.103016
     9289.363700       0.105546
     9298.000900       0.108094
     9306.654300       0.110659
     9315.323700       0.113241
     9324.009300       0.115841
     9332.711200       0.118458
     9341.429200       0.121092
     9350.163600       0.123743
     9358.914400       0.126411
     9367.681500       0.129096
     9376.465100       0.131798
     9385.265100       0.134516
     9394.081700       0.137251
     9402.914900       0.140002
     9411.764700       0.142770
     9420.631200       0.145555
     9429.514400       0.148356
     9438.414300       0.151173
     9447.331100       0.154007
     9456.264800       0.156858
     9465.215300       0.159725
     9474.182900       0.162609
     9483.167400       0.165509
     9492.169000       0.168425
     9501.187600       0.171358
     9510.223500       0.174308
     9519.276500       0.177274
     9528.346800       0.180257
     9537.434400       0.183256
     9546.539400       0.186272
     9555.661700       0.189304
     9564.801500       0.192353
     9573.958800       0.195419
     9583.133700       0.198502
     9592.326100       0.201601
     9601.536200       0.204717
     9610.764100       0.207849
     9620.009600       0.210999
     9629.273000       0.214165
     9638.554200       0.217348
     9647.853400       0.220548
     9657.170400       0.223764
     9666.505600       0.226998
     9675.858700       0.230249
     9685.230000       0.233516
     9694.619500       0.236800
     9704.027200       0.240101
     9713.453100       0.243419
     9722.897400       0.246754
     9732.360100       0.250106
     9741.841200       0.253475
     9751.340800       0.256860
     9760.859000       0.260263
     9770.395700       0.263682
     9779.951100       0.267118
     9789.525200       0.270572
     9799.118100       0.274042
     9808.729800       0.277528
     9818.360300       0.281031
     9828.009800       0.284551
     9837.678300       0.288088
     9847.365800       0.291641
     9857.072400       0.295211
     9866.798200       0.298797
     9876.543200       0.302399
     9886.307500       0.306019
     9896.091000       0.309654
     9905.894000       0.313305
     9915.716400       0.316973
     9925.558300       0.320656
     9935.419800       0.324356
     9945.300800       0.328071
     9955.201600       0.331802
     9965.122100       0.335549
     9975.062300       0.339311
     9985.022500       0.343089
     9995.002500       0.346882
    10005.002500       0.350689
    10015.022500       0.354512
    10025.062700       0.358350
    10035.122900       0.362202
    10045.203400       0.366069
    10055.304200       0.369951
    10065.425300       0.373846
    10075.566800       0.377756
    10085.728700       0.381679
    10095.911200       0.385617
    10106.114200       0.389568
    10116.337900       0.393532
    10126.582300       0.397509
    10136.847400       0.401499
    10147.133400       0.405502
    10157.440300       0.409517
    10167.768200       0.413544
    10178.117000       0.417584
    10188.487000       0.421635
    10198.878100       0.425698
    10209.290500       0.429773
    10219.724100       0.433858
    10230.179000       0.437954
    10240.655400       0.442062
    10251.153300       0.446179
    10261.672700       0.450306
    10272.213700       0.454443
    10282.776300       0.458590
    10293.360800       0.462746
    10303.967000       0.466910
    10314.595200       0.471084
    10325.245200       0.475265
    10335.917300       0.479455
    10346.611500       0.483653
    10357.327800       0.487858
    10368.066400       0.492070
    10378.827200       0.496289
    10389.610400       0.500515
    10400.416000       0.504746
    10411.244100       0.508983
    10422.094800       0.513226
    10432.968200       0.517474
    10443.864200       0.521727
    10454.783100       0.525985
    10465.724800       0.530246
    10476.689400       0.534511
    10487.677000       0.538780
    10498.687700       0.543051
    10509.721500       0.547325
    10520.778500       0.551602
    10531.858900       0.555880
    10542.962600       0.560160
    10554.089700       0.564441
    10565.240400       0.568723
    10576.414600       0.573005
    10587.612500       0.577287
    10598.834100       0.581569
    10610.079600       0.585850
    10621.348900       0.590130
    10632.642200       0.594408
    10643.959600       0.598685
    10655.301000       0.602959
    10666.666700       0.607230
    10678.056600       0.611498
    10689.470900       0.615762
    10700.909600       0.620022
    10712.372800       0.624278
    10723.860600       0.628529
    10735.373100       0.632774
    10746.910300       0.637014
    10758.472300       0.641248
    10770.059200       0.645475
    10781.671200       0.649695
    10793.308100       0.653908
    10804.970300       0.658114
    10816.657700       0.662310
    10828.370300       0.666498
    10840.108400       0.670677
    10851.871900       0.674847
    10863.661100       0.679006
    10875.475800       0.683156
    10887.316300       0.687294
    10899.182600       0.691421
    10911.074700       0.695537
    10922.992900       0.699640
    10934.937100       0.703730
    10946.907500       0.707808
    10958.904100       0.711873
    10970.927000       0.715923
    10982.976400       0.719960
    10995.052200       0.723981
    11007.154700       0.727988
    11019.283700       0.731979
    11031.439600       0.735954
    11043.622300       0.739913
    11055.832000       0.743854
    11068.068600       0.747779
    11080.332400       0.751686
    11092.623400       0.755575
    11104.941700       0.759446
    11117.287400       0.763297
    11129.660500       0.767129
    11142.061300       0.770942
    11154.489700       0.774734
    11166.945800       0.778506
    11179.429800       0.782257
    11191.941800       0.785987
    11204.481800       0.789695
    11217.049900       0.793380
    11229.646300       0.797043
    11242.270900       0.800684
    11254.924000       0.804301
    11267.605600       0.807894
    11280.315800       0.811463
    11293.054800       0.815007
    11305.822500       0.818527
    11318.619100       0.822022
    11331.444800       0.825490
    11344.299500       0.828933
    11357.183400       0.832350
    11370.096600       0.835740
    11383.039300       0.839102
    11396.011400       0.842438
    11409.013100       0.845745
    11422.044500       0.849025
    11435.105800       0.852276
    11448.196900       0.855498
    11461.318100       0.858691
    11474.469300       0.861854
    11487.650800       0.864988
    11500.862600       0.868092
    11514.104800       0.871165
    11527.377500       0.874207
    11540.680900       0.877219
    11554.015000       0.880199
    11567.380000       0.883147
    11580.775900       0.886063
    11594.202900       0.888947
    11607.661100       0.891799
    11621.150500       0.894618
    11634.671300       0.897403
    11648.223600       0.900155
    11661.807600       0.902874
    11675.423200       0.905559
    11689.070700       0.908209
    11702.750100       0.910825
    11716.461600       0.913407
    11730.205300       0.915953
    11743.981200       0.918465
    11757.789500       0.920941
    11771.630400       0.923381
    11785.503800       0.925786
    11799.410000       0.928155
    11813.349100       0.930487
    11827.321100       0.932783
    11841.326200       0.935043
    11855.364600       0.937265
    11869.436200       0.939451
    11883.541300       0.941600
    11897.680000       0.943711
    11911.852300       0.945784
    11926.058400       0.947820
    11940.298500       0.949819
    11954.572600       0.951779
    11968.880900       0.953701
    11983.223500       0.955585
    11997.600500       0.957430
    12012.012000       0.959237
    12026.458200       0.961006
    12040.939200       0.962736
    12055.455100       0.964427
    12070.006000       0.966079
    12084.592100       0.967692
    12099.213600       0.969266
    12113.870400       0.970800
    12128.562800       0.972296
    12143.290800       0.973752
    12158.054700       0.975169
    12172.854500       0.976546
    12187.690400       0.977884
    12202.562500       0.979183
    12217.471000       0.980442
    12232.415900       0.981661
    12247.397400       0.982841
    12262.415700       0.983981
    12277.470800       0.985082
    12292.563000       0.986143
    12307.692300       0.987164
    12322.858900       0.988146
    12338.062900       0.989089
    12353.304500       0.989991
    12368.583800       0.990855
    12383.900900       0.991678
    12399.256000       0.992463
    12414.649300       0.993208
    12430.080800       0.993914
    12445.550700       0.994580
    12461.059200       0.995207
    12476.606400       0.995796
    12492.192400       0.996345
    12507.817400       0.996855
    12523.481500       0.997327
    12539.185000       0.997759
    12554.927800       0.998153
    12570.710200       0.998509
    12586.532400       0.998826
    12602.394500       0.999105
    12618.296500       0.999346
    12634.238800       0.999549
    12650.221400       0.999714
    12666.244500       0.999842
    12682.308200       0.999932
    12698.412700       0.999985
    12714.558200       1.000000
    12730.744700       0.999978
    12746.972600       0.999920
    12763.241900       0.999825
    12779.552700       0.999694
    12795.905300       0.999526
    12812.299800       0.999323
    12828.736400       0.999083
    12845.215200       0.998808
    12861.736300       0.998498
    12878.300100       0.998153
    12894.906500       0.997772
    12911.555800       0.997357
    12928.248200       0.996908
    12944.983800       0.996425
    12961.762800       0.995907
    12978.585300       0.995356
    12995.451600       0.994772
    13012.361700       0.994154
    13029.316000       0.993504
    13046.314400       0.992821
    13063.357300       0.992107
    13080.444700       0.991360
    13097.576900       0.990581
    13114.754100       0.989771
    13131.976400       0.988931
    13149.243900       0.988059
    13166.556900       0.987157
    13183.915600       0.986225
    13201.320100       0.985264
    13218.770700       0.984272
    13236.267400       0.983252
    13253.810500       0.982204
    13271.400100       0.981126
    13289.036500       0.980021
    13306.719900       0.978888
    13324.450400       0.977728
    13342.228200       0.976541
    13360.053400       0.975327
    13377.926400       0.974087
    13395.847300       0.972822
    13413.816200       0.971530
    13431.833400       0.970214
    13449.899100       0.968873
    13468.013500       0.967508
    13486.176700       0.966119
    13504.388900       0.964706
    13522.650400       0.963271
    13540.961400       0.961812
    13559.322000       0.960331
    13577.732500       0.958829
    13596.193100       0.957304
    13614.703900       0.955759
    13633.265200       0.954193
    13651.877100       0.952607
    13670.540000       0.951001
    13689.253900       0.949376
    13708.019200       0.947732
    13726.836000       0.946069
    13745.704500       0.944388
    13764.624900       0.942689
    13783.597500       0.940973
    13802.622500       0.939240
    13821.700100       0.937491
    13840.830400       0.935726
    13860.013900       0.933946
    13879.250500       0.932150
    13898.540700       0.930340
    13917.884500       0.928515
    13937.282200       0.926677
    13956.734100       0.924826
    13976.240400       0.922962
    13995.801300       0.921085
    14015.417000       0.919197
    14035.087700       0.917296
    14054.813800       0.915385
    14074.595400       0.913464
    14094.432700       0.911532
    14114.326000       0.909591
    14134.275600       0.907640
    14154.281700       0.905680
    14174.344400       0.903713
    14194.464200       0.901737
    14214.641100       0.899754
    14234.875400       0.897764
    14255.167500       0.895767
    14275.517500       0.893764
    14295.925700       0.891756
    14316.392300       0.889743
    14336.917600       0.887724
    14357.501800       0.885702
    14378.145200       0.883675
    14398.848100       0.881646
    14419.610700       0.879613
    14440.433200       0.877578
    14461.316000       0.875540
    14482.259200       0.873501
    14503.263200       0.871461
    14524.328200       0.869420
    14545.454500       0.867378
    14566.642400       0.865337
    14587.892000       0.863296
    14609.203800       0.861256
    14630.577900       0.859218
    14652.014700       0.857181
    14673.514300       0.855147
    14695.077100       0.853115
    14716.703500       0.851086
    14738.393500       0.849060
    14760.147600       0.847038
    14781.966000       0.845021
    14803.849000       0.843008
    14825.796900       0.841000
    14847.809900       0.838997
    14869.888500       0.837001
    14892.032800       0.835010
    14914.243100       0.833026
    14936.519800       0.831049
    14958.863100       0.829079
    14981.273400       0.827117
    15003.750900       0.825163
    15026.296000       0.823217
    15048.909000       0.821280
    15071.590100       0.819352
    15094.339600       0.817434
    15117.158000       0.815525
    15140.045400       0.813627
    15163.002300       0.811739
    15186.028900       0.809861
    15209.125500       0.807995
    15232.292500       0.806140
    15255.530100       0.804297
    15278.838800       0.802466
    15302.218800       0.800647
    15325.670500       0.798840
    15349.194200       0.797047
    15372.790200       0.795267
    15396.458800       0.793500
    15420.200500       0.791747
    15444.015400       0.790007
    15467.904100       0.788283
    15491.866800       0.786572
    15515.903800       0.784876
    15540.015500       0.783196
    15564.202300       0.781530
    15588.464500       0.779880
    15612.802500       0.778245
    15637.216600       0.776626
    15661.707100       0.775024
    15686.274500       0.773437
    15710.919100       0.771867
    15735.641200       0.770314
    15760.441300       0.768777
    15785.319700       0.767257
    15810.276700       0.765754
    15835.312700       0.764269
    15860.428200       0.762801
    15885.623500       0.761350
    15910.899000       0.759917
    15936.255000       0.758502
    15961.691900       0.757105
    15987.210200       0.755726
    16012.810200       0.754365
    16038.492400       0.753022
    16064.257000       0.751697
    16090.104600       0.750391
    16116.035500       0.749103
    16142.050000       0.747833
    16168.148700       0.746582
    16194.332000       0.745350
    16220.600200       0.744136
    16246.953700       0.742940
    16273.393000       0.741763
    16299.918500       0.740605
    16326.530600       0.739466
    16353.229800       0.738345
    16380.016400       0.737242
    16406.890900       0.736159
    16433.853700       0.735093
    16460.905300       0.734046
    16488.046200       0.733018
    16515.276600       0.732007
    16542.597200       0.731015
    16570.008300       0.730042
    16597.510400       0.729086
    16625.103900       0.728148
    16652.789300       0.727228
    16680.567100       0.726326
    16708.437800       0.725441
    16736.401700       0.724574
    16764.459300       0.723724
    16792.611300       0.722892
    16820.857900       0.722076
    16849.199700       0.721277
    16877.637100       0.720494
    16906.170800       0.719729
    16934.801000       0.718979
    16963.528400       0.718245
    16992.353400       0.717527
    17021.276600       0.716825
    17050.298400       0.716138
    17079.419300       0.715466
    17108.639900       0.714809
    17137.960600       0.714166
    17167.382000       0.713537
    17196.904600       0.712923
    17226.528900       0.712322
    17256.255400       0.711734
    17286.084700       0.711160
    17316.017300       0.710598
    17346.053800       0.710048
    17376.194600       0.709511
    17406.440400       0.708985
    17436.791600       0.708470
    17467.248900       0.707967
    17497.812800       0.707473
    17528.483800       0.706990
    17559.262500       0.706517
    17590.149500       0.706053
    17621.145400       0.705598
    17652.250700       0.705152
    17683.466000       0.704713
    17714.791900       0.704283
    17746.228900       0.703859
    17777.777800       0.703442
    17809.439000       0.703031
    17841.213200       0.702626
    17873.101000       0.702226
    17905.103000       0.701831
    17937.219700       0.701441
    17969.451900       0.701054
    18001.800200       0.700670
    18034.265100       0.700289
    18066.847300       0.699910
    18099.547500       0.699533
    18132.366300       0.699156
    18165.304300       0.698781
    18198.362100       0.698405
    18231.540600       0.698029
    18264.840200       0.697651
    18298.261700       0.697272
    18331.805700       0.696890
    18365.472900       0.696505
    18399.264000       0.696117
    18433.179700       0.695724
    18467.220700       0.695327
    18501.387600       0.694924
    18535.681200       0.694515
    18570.102100       0.694099
    18604.651200       0.693676
    18639.329000       0.693244
    18674.136300       0.692804
    18709.073900       0.692355
    18744.142500       0.691896
    18779.342700       0.691426
    18814.675400       0.690944
    18850.141400       0.690450
    18885.741300       0.689944
    18921.475900       0.689424
    18957.346000       0.688890
    18993.352300       0.688341
    19029.495700       0.687777
    19065.776900       0.687196
    19102.196800       0.686598
    19138.756000       0.685983
    19175.455400       0.685349
    19212.295900       0.684696
    19249.278200       0.684022
    19286.403100       0.683329
    19323.671500       0.682614
    19361.084200       0.681877
    19398.642100       0.681117
    19436.346000       0.680333
    19474.196700       0.679525
    19512.195100       0.678692
    19550.342100       0.677833
    19588.638600       0.676948
    19627.085400       0.676035
    19665.683400       0.675095
    19704.433500       0.674125
    19743.336600       0.673127
    19782.393700       0.672097
    19821.605600       0.671037
    19860.973200       0.669945
    19900.497500       0.668821
    19940.179500       0.667663
    19980.020000       0.666472
    20020.020000       0.665246
    20060.180500       0.663984
    20100.502500       0.662686
    20140.986900       0.661351
    20181.634700       0.659979
    20222.446900       0.658568
    20263.424500       0.657119
    20304.568500       0.655630
    20345.880000       0.654100
    20387.359800       0.652529
    20429.009200       0.650916
    20470.829100       0.649261
    20512.820500       0.647562
    20554.984600       0.645820
    20597.322300       0.644033
    20639.834900       0.642201
    20682.523300       0.640323
    20725.388600       0.638399
    20768.432000       0.636428
    20811.654500       0.634408
    20855.057400       0.632341
    20898.641600       0.630224
    20942.408400       0.628058
    20986.358900       0.625842
    21030.494200       0.623574
    21074.815600       0.621256
    21119.324200       0.618886
    21164.021200       0.616463
    21208.907700       0.613988
    21253.985100       0.611459
    21299.254500       0.608876
    21344.717200       0.606238
    21390.374300       0.603546
    21436.227200       0.600798
    21482.277100       0.597995
    21528.525300       0.595135
    21574.973000       0.592219
    21621.621600       0.589246
    21668.472400       0.586215
    21715.526600       0.583126
    21762.785600       0.579979
    21810.250800       0.576774
    21857.923500       0.573510
    21905.805000       0.570187
    21953.896800       0.566805
    22002.200200       0.563363
    22050.716600       0.559862
    22099.447500       0.556301
    22148.394200       0.552679
    22197.558300       0.548997
    22246.941000       0.545255
    22296.544000       0.541452
    22346.368700       0.537589
    22396.416600       0.533665
    22446.689100       0.529680
    22497.187900       0.525635
    22547.914300       0.521529
    22598.870100       0.517362
    22650.056600       0.513135
    22701.475600       0.508847
    22753.128600       0.504499
    22805.017100       0.500091
    22857.142900       0.495624
    22909.507400       0.491096
    22962.112500       0.486509
    23014.959700       0.481863
    23068.050700       0.477158
    23121.387300       0.472395
    23174.971000       0.467574
    23228.803700       0.462695
    23282.887100       0.457760
    23337.222900       0.452767
    23391.812900       0.447719
    23446.658900       0.442614
    23501.762600       0.437456
    23557.126000       0.432243
    23612.750900       0.426976
    23668.639100       0.421657
    23724.792400       0.416286
    23781.212800       0.410864
    23837.902300       0.405391
    23894.862600       0.399870
    23952.095800       0.394300
    24009.603800       0.388682
    24067.388700       0.383018
    24125.452400       0.377310
    24183.796900       0.371557
    24242.424200       0.365761
    24301.336600       0.359924
    24360.535900       0.354046
    24420.024400       0.348129
    24479.804200       0.342175
    24539.877300       0.336185
    24600.246000       0.330160
    24660.912500       0.324103
    24721.878900       0.318014
    24783.147500       0.311895
    24844.720500       0.305748
    24906.600200       0.299575
    24968.789000       0.293378
    25031.289100       0.287159
    25094.102900       0.280919
    25157.232700       0.274660
    25220.681000       0.268386
    25284.450100       0.262097
    25348.542500       0.255796
    25412.960600       0.249486
    25477.707000       0.243169
