121,   121, MVIRI VIS channel from srf_MET5_2006123_2006124_1801-Release_S10EL_10.dat
Number of data points:
806
Wavenumber (cm-1)   Filter response
     8350.730700       0.000000
     8357.710000       0.000000
     8364.701000       0.000000
     8371.703600       0.000002
     8378.718100       0.000004
     8385.744200       0.000009
     8392.782200       0.000017
     8399.832000       0.000028
     8406.893700       0.000043
     8413.967200       0.000062
     8421.052600       0.000086
     8428.150000       0.000115
     8435.259400       0.000150
     8442.380800       0.000192
     8449.514200       0.000240
     8456.659600       0.000295
     8463.817200       0.000358
     8470.986900       0.000429
     8478.168700       0.000508
     8485.362700       0.000595
     8492.569000       0.000692
     8499.787500       0.000798
     8507.018300       0.000914
     8514.261400       0.001039
     8521.516800       0.001176
     8528.784600       0.001322
     8536.064900       0.001480
     8543.357500       0.001649
     8550.662700       0.001829
     8557.980300       0.002021
     8565.310500       0.002225
     8572.653200       0.002441
     8580.008600       0.002670
     8587.376600       0.002911
     8594.757200       0.003165
     8602.150500       0.003432
     8609.556600       0.003713
     8616.975400       0.004007
     8624.407100       0.004315
     8631.851500       0.004637
     8639.308900       0.004973
     8646.779100       0.005323
     8654.262200       0.005688
     8661.758300       0.006067
     8669.267400       0.006461
     8676.789600       0.006870
     8684.324800       0.007294
     8691.873100       0.007734
     8699.434500       0.008189
     8707.009100       0.008659
     8714.596900       0.009145
     8722.198000       0.009647
     8729.812300       0.010165
     8737.439900       0.010700
     8745.080900       0.011250
     8752.735200       0.011817
     8760.403000       0.012400
     8768.084200       0.013000
     8775.778900       0.013617
     8783.487000       0.014251
     8791.208800       0.014901
     8798.944100       0.015569
     8806.693100       0.016255
     8814.455700       0.016957
     8822.232000       0.017677
     8830.022100       0.018415
     8837.825900       0.019170
     8845.643500       0.019943
     8853.475000       0.020734
     8861.320300       0.021544
     8869.179600       0.022371
     8877.052800       0.023216
     8884.940000       0.024081
     8892.841300       0.024963
     8900.756600       0.025864
     8908.686000       0.026784
     8916.629500       0.027722
     8924.587200       0.028680
     8932.559200       0.029656
     8940.545400       0.030652
     8948.545900       0.031667
     8956.560700       0.032701
     8964.589900       0.033754
     8972.633500       0.034827
     8980.691500       0.035920
     8988.764000       0.037033
     8996.851100       0.038165
     9004.952700       0.039317
     9013.068900       0.040489
     9021.199800       0.041681
     9029.345400       0.042894
     9037.505600       0.044127
     9045.680700       0.045380
     9053.870500       0.046654
     9062.075200       0.047948
     9070.294800       0.049263
     9078.529300       0.050599
     9086.778700       0.051956
     9095.043200       0.053334
     9103.322700       0.054733
     9111.617300       0.056153
     9119.927000       0.057594
     9128.251900       0.059057
     9136.592100       0.060541
     9144.947400       0.062046
     9153.318100       0.063574
     9161.704100       0.065123
     9170.105500       0.066694
     9178.522300       0.068286
     9186.954500       0.069901
     9195.402300       0.071538
     9203.865600       0.073197
     9212.344500       0.074878
     9220.839100       0.076581
     9229.349300       0.078307
     9237.875300       0.080055
     9246.417000       0.081826
     9254.974500       0.083619
     9263.547900       0.085436
     9272.137200       0.087274
     9280.742500       0.089136
     9289.363700       0.091021
     9298.000900       0.092928
     9306.654300       0.094859
     9315.323700       0.096812
     9324.009300       0.098789
     9332.711200       0.100790
     9341.429200       0.102813
     9350.163600       0.104860
     9358.914400       0.106929
     9367.681500       0.109023
     9376.465100       0.111140
     9385.265100       0.113281
     9394.081700       0.115445
     9402.914900       0.117632
     9411.764700       0.119844
     9420.631200       0.122079
     9429.514400       0.124338
     9438.414300       0.126620
     9447.331100       0.128927
     9456.264800       0.131257
     9465.215300       0.133611
     9474.182900       0.135989
     9483.167400       0.138391
     9492.169000       0.140816
     9501.187600       0.143266
     9510.223500       0.145740
     9519.276500       0.148237
     9528.346800       0.150758
     9537.434400       0.153304
     9546.539400       0.155873
     9555.661700       0.158466
     9564.801500       0.161083
     9573.958800       0.163725
     9583.133700       0.166390
     9592.326100       0.169078
     9601.536200       0.171791
     9610.764100       0.174527
     9620.009600       0.177288
     9629.273000       0.180072
     9638.554200       0.182880
     9647.853400       0.185711
     9657.170400       0.188566
     9666.505600       0.191445
     9675.858700       0.194347
     9685.230000       0.197273
     9694.619500       0.200222
     9704.027200       0.203194
     9713.453100       0.206190
     9722.897400       0.209209
     9732.360100       0.212251
     9741.841200       0.215317
     9751.340800       0.218405
     9760.859000       0.221516
     9770.395700       0.224650
     9779.951100       0.227806
     9789.525200       0.230985
     9799.118100       0.234187
     9808.729800       0.237411
     9818.360300       0.240657
     9828.009800       0.243926
     9837.678300       0.247216
     9847.365800       0.250529
     9857.072400       0.253863
     9866.798200       0.257219
     9876.543200       0.260596
     9886.307500       0.263995
     9896.091000       0.267415
     9905.894000       0.270856
     9915.716400       0.274318
     9925.558300       0.277800
     9935.419800       0.281304
     9945.300800       0.284828
     9955.201600       0.288371
     9965.122100       0.291936
     9975.062300       0.295519
     9985.022500       0.299123
     9995.002500       0.302746
    10005.002500       0.306389
    10015.022500       0.310050
    10025.062700       0.313731
    10035.122900       0.317430
    10045.203400       0.321148
    10055.304200       0.324884
    10065.425300       0.328638
    10075.566800       0.332410
    10085.728700       0.336200
    10095.911200       0.340007
    10106.114200       0.343831
    10116.337900       0.347672
    10126.582300       0.351529
    10136.847400       0.355404
    10147.133400       0.359294
    10157.440300       0.363200
    10167.768200       0.367122
    10178.117000       0.371059
    10188.487000       0.375011
    10198.878100       0.378979
    10209.290500       0.382960
    10219.724100       0.386956
    10230.179000       0.390966
    10240.655400       0.394990
    10251.153300       0.399027
    10261.672700       0.403077
    10272.213700       0.407141
    10282.776300       0.411216
    10293.360800       0.415304
    10303.967000       0.419404
    10314.595200       0.423515
    10325.245200       0.427638
    10335.917300       0.431771
    10346.611500       0.435916
    10357.327800       0.440070
    10368.066400       0.444234
    10378.827200       0.448409
    10389.610400       0.452592
    10400.416000       0.456785
    10411.244100       0.460986
    10422.094800       0.465195
    10432.968200       0.469412
    10443.864200       0.473637
    10454.783100       0.477869
    10465.724800       0.482108
    10476.689400       0.486353
    10487.677000       0.490605
    10498.687700       0.494862
    10509.721500       0.499125
    10520.778500       0.503393
    10531.858900       0.507665
    10542.962600       0.511942
    10554.089700       0.516223
    10565.240400       0.520507
    10576.414600       0.524795
    10587.612500       0.529085
    10598.834100       0.533378
    10610.079600       0.537672
    10621.348900       0.541969
    10632.642200       0.546266
    10643.959600       0.550564
    10655.301000       0.554863
    10666.666700       0.559162
    10678.056600       0.563460
    10689.470900       0.567758
    10700.909600       0.572055
    10712.372800       0.576350
    10723.860600       0.580643
    10735.373100       0.584933
    10746.910300       0.589221
    10758.472300       0.593506
    10770.059200       0.597787
    10781.671200       0.602064
    10793.308100       0.606337
    10804.970300       0.610605
    10816.657700       0.614868
    10828.370300       0.619125
    10840.108400       0.623376
    10851.871900       0.627621
    10863.661100       0.631859
    10875.475800       0.636090
    10887.316300       0.640313
    10899.182600       0.644527
    10911.074700       0.648734
    10922.992900       0.652931
    10934.937100       0.657119
    10946.907500       0.661298
    10958.904100       0.665466
    10970.927000       0.669624
    10982.976400       0.673771
    10995.052200       0.677906
    11007.154700       0.682030
    11019.283700       0.686141
    11031.439600       0.690240
    11043.622300       0.694326
    11055.832000       0.698398
    11068.068600       0.702457
    11080.332400       0.706502
    11092.623400       0.710531
    11104.941700       0.714546
    11117.287400       0.718546
    11129.660500       0.722529
    11142.061300       0.726497
    11154.489700       0.730448
    11166.945800       0.734382
    11179.429800       0.738298
    11191.941800       0.742197
    11204.481800       0.746078
    11217.049900       0.749940
    11229.646300       0.753783
    11242.270900       0.757607
    11254.924000       0.761412
    11267.605600       0.765196
    11280.315800       0.768960
    11293.054800       0.772703
    11305.822500       0.776425
    11318.619100       0.780125
    11331.444800       0.783804
    11344.299500       0.787460
    11357.183400       0.791094
    11370.096600       0.794705
    11383.039300       0.798292
    11396.011400       0.801856
    11409.013100       0.805396
    11422.044500       0.808912
    11435.105800       0.812403
    11448.196900       0.815869
    11461.318100       0.819310
    11474.469300       0.822725
    11487.650800       0.826114
    11500.862600       0.829477
    11514.104800       0.832813
    11527.377500       0.836122
    11540.680900       0.839405
    11554.015000       0.842659
    11567.380000       0.845886
    11580.775900       0.849085
    11594.202900       0.852255
    11607.661100       0.855397
    11621.150500       0.858510
    11634.671300       0.861593
    11648.223600       0.864647
    11661.807600       0.867671
    11675.423200       0.870666
    11689.070700       0.873630
    11702.750100       0.876563
    11716.461600       0.879465
    11730.205300       0.882337
    11743.981200       0.885177
    11757.789500       0.887986
    11771.630400       0.890763
    11785.503800       0.893508
    11799.410000       0.896220
    11813.349100       0.898901
    11827.321100       0.901549
    11841.326200       0.904164
    11855.364600       0.906745
    11869.436200       0.909294
    11883.541300       0.911809
    11897.680000       0.914291
    11911.852300       0.916739
    11926.058400       0.919153
    11940.298500       0.921533
    11954.572600       0.923879
    11968.880900       0.926190
    11983.223500       0.928466
    11997.600500       0.930708
    12012.012000       0.932915
    12026.458200       0.935087
    12040.939200       0.937224
    12055.455100       0.939326
    12070.006000       0.941393
    12084.592100       0.943424
    12099.213600       0.945419
    12113.870400       0.947379
    12128.562800       0.949303
    12143.290800       0.951191
    12158.054700       0.953043
    12172.854500       0.954859
    12187.690400       0.956640
    12202.562500       0.958384
    12217.471000       0.960092
    12232.415900       0.961764
    12247.397400       0.963399
    12262.415700       0.964998
    12277.470800       0.966561
    12292.563000       0.968088
    12307.692300       0.969578
    12322.858900       0.971032
    12338.062900       0.972449
    12353.304500       0.973830
    12368.583800       0.975175
    12383.900900       0.976483
    12399.256000       0.977755
    12414.649300       0.978990
    12430.080800       0.980190
    12445.550700       0.981353
    12461.059200       0.982480
    12476.606400       0.983570
    12492.192400       0.984625
    12507.817400       0.985643
    12523.481500       0.986626
    12539.185000       0.987573
    12554.927800       0.988483
    12570.710200       0.989359
    12586.532400       0.990198
    12602.394500       0.991002
    12618.296500       0.991770
    12634.238800       0.992504
    12650.221400       0.993202
    12666.244500       0.993864
    12682.308200       0.994492
    12698.412700       0.995085
    12714.558200       0.995644
    12730.744700       0.996168
    12746.972600       0.996657
    12763.241900       0.997113
    12779.552700       0.997534
    12795.905300       0.997921
    12812.299800       0.998275
    12828.736400       0.998595
    12845.215200       0.998882
    12861.736300       0.999135
    12878.300100       0.999356
    12894.906500       0.999544
    12911.555800       0.999699
    12928.248200       0.999822
    12944.983800       0.999913
    12961.762800       0.999973
    12978.585300       1.000000
    12995.451600       0.999996
    13012.361700       0.999961
    13029.316000       0.999895
    13046.314400       0.999798
    13063.357300       0.999671
    13080.444700       0.999514
    13097.576900       0.999327
    13114.754100       0.999110
    13131.976400       0.998864
    13149.243900       0.998589
    13166.556900       0.998285
    13183.915600       0.997953
    13201.320100       0.997593
    13218.770700       0.997204
    13236.267400       0.996788
    13253.810500       0.996345
    13271.400100       0.995875
    13289.036500       0.995378
    13306.719900       0.994855
    13324.450400       0.994306
    13342.228200       0.993732
    13360.053400       0.993132
    13377.926400       0.992507
    13395.847300       0.991858
    13413.816200       0.991184
    13431.833400       0.990486
    13449.899100       0.989765
    13468.013500       0.989020
    13486.176700       0.988253
    13504.388900       0.987463
    13522.650400       0.986651
    13540.961400       0.985817
    13559.322000       0.984962
    13577.732500       0.984086
    13596.193100       0.983189
    13614.703900       0.982272
    13633.265200       0.981335
    13651.877100       0.980379
    13670.540000       0.979403
    13689.253900       0.978409
    13708.019200       0.977396
    13726.836000       0.976366
    13745.704500       0.975318
    13764.624900       0.974253
    13783.597500       0.973171
    13802.622500       0.972073
    13821.700100       0.970959
    13840.830400       0.969830
    13860.013900       0.968685
    13879.250500       0.967526
    13898.540700       0.966353
    13917.884500       0.965165
    13937.282200       0.963965
    13956.734100       0.962751
    13976.240400       0.961525
    13995.801300       0.960286
    14015.417000       0.959036
    14035.087700       0.957775
    14054.813800       0.956502
    14074.595400       0.955219
    14094.432700       0.953926
    14114.326000       0.952623
    14134.275600       0.951311
    14154.281700       0.949991
    14174.344400       0.948662
    14194.464200       0.947324
    14214.641100       0.945980
    14234.875400       0.944628
    14255.167500       0.943269
    14275.517500       0.941905
    14295.925700       0.940534
    14316.392300       0.939158
    14336.917600       0.937776
    14357.501800       0.936391
    14378.145200       0.935000
    14398.848100       0.933607
    14419.610700       0.932209
    14440.433200       0.930809
    14461.316000       0.929406
    14482.259200       0.928001
    14503.263200       0.926594
    14524.328200       0.925185
    14545.454500       0.923776
    14566.642400       0.922366
    14587.892000       0.920956
    14609.203800       0.919546
    14630.577900       0.918137
    14652.014700       0.916729
    14673.514300       0.915321
    14695.077100       0.913916
    14716.703500       0.912513
    14738.393500       0.911112
    14760.147600       0.909714
    14781.966000       0.908320
    14803.849000       0.906928
    14825.796900       0.905541
    14847.809900       0.904158
    14869.888500       0.902780
    14892.032800       0.901407
    14914.243100       0.900038
    14936.519800       0.898676
    14958.863100       0.897320
    14981.273400       0.895970
    15003.750900       0.894626
    15026.296000       0.893290
    15048.909000       0.891960
    15071.590100       0.890639
    15094.339600       0.889325
    15117.158000       0.888019
    15140.045400       0.886722
    15163.002300       0.885434
    15186.028900       0.884155
    15209.125500       0.882885
    15232.292500       0.881624
    15255.530100       0.880374
    15278.838800       0.879134
    15302.218800       0.877904
    15325.670500       0.876684
    15349.194200       0.875476
    15372.790200       0.874278
    15396.458800       0.873092
    15420.200500       0.871918
    15444.015400       0.870755
    15467.904100       0.869604
    15491.866800       0.868465
    15515.903800       0.867339
    15540.015500       0.866225
    15564.202300       0.865124
    15588.464500       0.864036
    15612.802500       0.862961
    15637.216600       0.861899
    15661.707100       0.860851
    15686.274500       0.859816
    15710.919100       0.858794
    15735.641200       0.857787
    15760.441300       0.856793
    15785.319700       0.855813
    15810.276700       0.854848
    15835.312700       0.853897
    15860.428200       0.852959
    15885.623500       0.852037
    15910.899000       0.851128
    15936.255000       0.850235
    15961.691900       0.849356
    15987.210200       0.848491
    16012.810200       0.847641
    16038.492400       0.846805
    16064.257000       0.845985
    16090.104600       0.845179
    16116.035500       0.844387
    16142.050000       0.843611
    16168.148700       0.842849
    16194.332000       0.842101
    16220.600200       0.841369
    16246.953700       0.840650
    16273.393000       0.839946
    16299.918500       0.839257
    16326.530600       0.838582
    16353.229800       0.837921
    16380.016400       0.837275
    16406.890900       0.836642
    16433.853700       0.836024
    16460.905300       0.835419
    16488.046200       0.834828
    16515.276600       0.834250
    16542.597200       0.833686
    16570.008300       0.833135
    16597.510400       0.832598
    16625.103900       0.832073
    16652.789300       0.831561
    16680.567100       0.831061
    16708.437800       0.830574
    16736.401700       0.830098
    16764.459300       0.829635
    16792.611300       0.829183
    16820.857900       0.828743
    16849.199700       0.828313
    16877.637100       0.827895
    16906.170800       0.827487
    16934.801000       0.827089
    16963.528400       0.826701
    16992.353400       0.826323
    17021.276600       0.825954
    17050.298400       0.825595
    17079.419300       0.825244
    17108.639900       0.824901
    17137.960600       0.824566
    17167.382000       0.824239
    17196.904600       0.823918
    17226.528900       0.823605
    17256.255400       0.823298
    17286.084700       0.822997
    17316.017300       0.822702
    17346.053800       0.822412
    17376.194600       0.822127
    17406.440400       0.821845
    17436.791600       0.821568
    17467.248900       0.821294
    17497.812800       0.821023
    17528.483800       0.820754
    17559.262500       0.820488
    17590.149500       0.820222
    17621.145400       0.819958
    17652.250700       0.819693
    17683.466000       0.819429
    17714.791900       0.819164
    17746.228900       0.818897
    17777.777800       0.818629
    17809.439000       0.818359
    17841.213200       0.818085
    17873.101000       0.817808
    17905.103000       0.817526
    17937.219700       0.817240
    17969.451900       0.816949
    18001.800200       0.816651
    18034.265100       0.816347
    18066.847300       0.816036
    18099.547500       0.815717
    18132.366300       0.815389
    18165.304300       0.815052
    18198.362100       0.814705
    18231.540600       0.814348
    18264.840200       0.813979
    18298.261700       0.813598
    18331.805700       0.813205
    18365.472900       0.812798
    18399.264000       0.812378
    18433.179700       0.811942
    18467.220700       0.811492
    18501.387600       0.811024
    18535.681200       0.810540
    18570.102100       0.810039
    18604.651200       0.809519
    18639.329000       0.808979
    18674.136300       0.808420
    18709.073900       0.807840
    18744.142500       0.807238
    18779.342700       0.806614
    18814.675400       0.805968
    18850.141400       0.805297
    18885.741300       0.804601
    18921.475900       0.803881
    18957.346000       0.803134
    18993.352300       0.802360
    19029.495700       0.801558
    19065.776900       0.800727
    19102.196800       0.799867
    19138.756000       0.798977
    19175.455400       0.798055
    19212.295900       0.797102
    19249.278200       0.796116
    19286.403100       0.795096
    19323.671500       0.794042
    19361.084200       0.792953
    19398.642100       0.791827
    19436.346000       0.790665
    19474.196700       0.789465
    19512.195100       0.788226
    19550.342100       0.786948
    19588.638600       0.785630
    19627.085400       0.784270
    19665.683400       0.782868
    19704.433500       0.781424
    19743.336600       0.779936
    19782.393700       0.778404
    19821.605600       0.776826
    19860.973200       0.775202
    19900.497500       0.773531
    19940.179500       0.771813
    19980.020000       0.770045
    20020.020000       0.768228
    20060.180500       0.766361
    20100.502500       0.764443
    20140.986900       0.762473
    20181.634700       0.760450
    20222.446900       0.758374
    20263.424500       0.756243
    20304.568500       0.754057
    20345.880000       0.751815
    20387.359800       0.749516
    20429.009200       0.747160
    20470.829100       0.744745
    20512.820500       0.742272
    20554.984600       0.739738
    20597.322300       0.737144
    20639.834900       0.734489
    20682.523300       0.731771
    20725.388600       0.728991
    20768.432000       0.726147
    20811.654500       0.723238
    20855.057400       0.720265
    20898.641600       0.717226
    20942.408400       0.714121
    20986.358900       0.710948
    21030.494200       0.707708
    21074.815600       0.704399
    21119.324200       0.701022
    21164.021200       0.697574
    21208.907700       0.694057
    21253.985100       0.690468
    21299.254500       0.686808
    21344.717200       0.683075
    21390.374300       0.679270
    21436.227200       0.675392
    21482.277100       0.671440
    21528.525300       0.667414
    21574.973000       0.663313
    21621.621600       0.659136
    21668.472400       0.654884
    21715.526600       0.650555
    21762.785600       0.646150
    21810.250800       0.641667
    21857.923500       0.637107
    21905.805000       0.632469
    21953.896800       0.627752
    22002.200200       0.622957
    22050.716600       0.618083
    22099.447500       0.613129
    22148.394200       0.608096
    22197.558300       0.602983
    22246.941000       0.597789
    22296.544000       0.592515
    22346.368700       0.587160
    22396.416600       0.581725
    22446.689100       0.576208
    22497.187900       0.570611
    22547.914300       0.564932
    22598.870100       0.559171
    22650.056600       0.553329
    22701.475600       0.547406
    22753.128600       0.541401
    22805.017100       0.535314
    22857.142900       0.529146
    22909.507400       0.522896
    22962.112500       0.516565
    23014.959700       0.510153
    23068.050700       0.503660
    23121.387300       0.497086
    23174.971000       0.490430
    23228.803700       0.483695
    23282.887100       0.476879
    23337.222900       0.469983
    23391.812900       0.463008
    23446.658900       0.455953
    23501.762600       0.448819
    23557.126000       0.441607
    23612.750900       0.434317
    23668.639100       0.426949
    23724.792400       0.419504
    23781.212800       0.411983
    23837.902300       0.404385
    23894.862600       0.396713
    23952.095800       0.388965
    24009.603800       0.381144
    24067.388700       0.373250
    24125.452400       0.365283
    24183.796900       0.357245
    24242.424200       0.349135
    24301.336600       0.340956
    24360.535900       0.332708
    24420.024400       0.324392
    24479.804200       0.316009
    24539.877300       0.307560
    24600.246000       0.299047
    24660.912500       0.290469
    24721.878900       0.281829
    24783.147500       0.273128
    24844.720500       0.264367
    24906.600200       0.255546
    24968.789000       0.246669
    25031.289100       0.237736
    25094.102900       0.228747
    25157.232700       0.219706
    25220.681000       0.210613
    25284.450100       0.201471
    25348.542500       0.192280
    25412.960600       0.183042
    25477.707000       0.173759
