61,   61, MVIRI VIS channel from srf_MET2_1989258_1989259_1801-Release_S10EL_10.dat
Number of data points:
730
Wavenumber (cm-1)   Filter response
     8916.629500       0.000000
     8924.587200       0.000000
     8932.559200       0.000002
     8940.545400       0.000012
     8948.545900       0.000032
     8956.560700       0.000070
     8964.589900       0.000127
     8972.633500       0.000210
     8980.691500       0.000322
     8988.764000       0.000466
     8996.851100       0.000646
     9004.952700       0.000867
     9013.068900       0.001131
     9021.199800       0.001441
     9029.345400       0.001801
     9037.505600       0.002214
     9045.680700       0.002681
     9053.870500       0.003207
     9062.075200       0.003794
     9070.294800       0.004443
     9078.529300       0.005157
     9086.778700       0.005939
     9095.043200       0.006790
     9103.322700       0.007711
     9111.617300       0.008706
     9119.927000       0.009775
     9128.251900       0.010921
     9136.592100       0.012143
     9144.947400       0.013445
     9153.318100       0.014826
     9161.704100       0.016289
     9170.105500       0.017833
     9178.522300       0.019461
     9186.954500       0.021172
     9195.402300       0.022968
     9203.865600       0.024849
     9212.344500       0.026816
     9220.839100       0.028869
     9229.349300       0.031009
     9237.875300       0.033235
     9246.417000       0.035549
     9254.974500       0.037950
     9263.547900       0.040438
     9272.137200       0.043014
     9280.742500       0.045677
     9289.363700       0.048427
     9298.000900       0.051264
     9306.654300       0.054189
     9315.323700       0.057199
     9324.009300       0.060296
     9332.711200       0.063478
     9341.429200       0.066746
     9350.163600       0.070098
     9358.914400       0.073535
     9367.681500       0.077055
     9376.465100       0.080658
     9385.265100       0.084343
     9394.081700       0.088109
     9402.914900       0.091956
     9411.764700       0.095883
     9420.631200       0.099889
     9429.514400       0.103972
     9438.414300       0.108133
     9447.331100       0.112369
     9456.264800       0.116681
     9465.215300       0.121067
     9474.182900       0.125525
     9483.167400       0.130055
     9492.169000       0.134656
     9501.187600       0.139326
     9510.223500       0.144065
     9519.276500       0.148870
     9528.346800       0.153742
     9537.434400       0.158678
     9546.539400       0.163677
     9555.661700       0.168739
     9564.801500       0.173861
     9573.958800       0.179043
     9583.133700       0.184283
     9592.326100       0.189579
     9601.536200       0.194931
     9610.764100       0.200336
     9620.009600       0.205794
     9629.273000       0.211304
     9638.554200       0.216863
     9647.853400       0.222471
     9657.170400       0.228125
     9666.505600       0.233826
     9675.858700       0.239571
     9685.230000       0.245357
     9694.619500       0.251186
     9704.027200       0.257053
     9713.453100       0.262960
     9722.897400       0.268903
     9732.360100       0.274882
     9741.841200       0.280895
     9751.340800       0.286940
     9760.859000       0.293016
     9770.395700       0.299123
     9779.951100       0.305256
     9789.525200       0.311418
     9799.118100       0.317604
     9808.729800       0.323814
     9818.360300       0.330047
     9828.009800       0.336301
     9837.678300       0.342575
     9847.365800       0.348867
     9857.072400       0.355175
     9866.798200       0.361500
     9876.543200       0.367838
     9886.307500       0.374189
     9896.091000       0.380552
     9905.894000       0.386923
     9915.716400       0.393305
     9925.558300       0.399693
     9935.419800       0.406087
     9945.300800       0.412487
     9955.201600       0.418889
     9965.122100       0.425293
     9975.062300       0.431698
     9985.022500       0.438103
     9995.002500       0.444507
    10005.002500       0.450907
    10015.022500       0.457303
    10025.062700       0.463694
    10035.122900       0.470078
    10045.203400       0.476454
    10055.304200       0.482822
    10065.425300       0.489179
    10075.566800       0.495525
    10085.728700       0.501858
    10095.911200       0.508179
    10106.114200       0.514484
    10116.337900       0.520774
    10126.582300       0.527048
    10136.847400       0.533303
    10147.133400       0.539540
    10157.440300       0.545757
    10167.768200       0.551953
    10178.117000       0.558127
    10188.487000       0.564278
    10198.878100       0.570407
    10209.290500       0.576510
    10219.724100       0.582587
    10230.179000       0.588638
    10240.655400       0.594662
    10251.153300       0.600657
    10261.672700       0.606624
    10272.213700       0.612560
    10282.776300       0.618466
    10293.360800       0.624340
    10303.967000       0.630182
    10314.595200       0.635990
    10325.245200       0.641765
    10335.917300       0.647505
    10346.611500       0.653210
    10357.327800       0.658879
    10368.066400       0.664511
    10378.827200       0.670106
    10389.610400       0.675663
    10400.416000       0.681181
    10411.244100       0.686660
    10422.094800       0.692099
    10432.968200       0.697498
    10443.864200       0.702855
    10454.783100       0.708171
    10465.724800       0.713445
    10476.689400       0.718676
    10487.677000       0.723865
    10498.687700       0.729009
    10509.721500       0.734110
    10520.778500       0.739165
    10531.858900       0.744176
    10542.962600       0.749142
    10554.089700       0.754062
    10565.240400       0.758935
    10576.414600       0.763762
    10587.612500       0.768542
    10598.834100       0.773275
    10610.079600       0.777960
    10621.348900       0.782597
    10632.642200       0.787185
    10643.959600       0.791726
    10655.301000       0.796217
    10666.666700       0.800660
    10678.056600       0.805053
    10689.470900       0.809396
    10700.909600       0.813690
    10712.372800       0.817934
    10723.860600       0.822127
    10735.373100       0.826270
    10746.910300       0.830363
    10758.472300       0.834405
    10770.059200       0.838397
    10781.671200       0.842337
    10793.308100       0.846226
    10804.970300       0.850064
    10816.657700       0.853851
    10828.370300       0.857587
    10840.108400       0.861271
    10851.871900       0.864904
    10863.661100       0.868485
    10875.475800       0.872015
    10887.316300       0.875493
    10899.182600       0.878920
    10911.074700       0.882295
    10922.992900       0.885619
    10934.937100       0.888891
    10946.907500       0.892111
    10958.904100       0.895281
    10970.927000       0.898399
    10982.976400       0.901465
    10995.052200       0.904480
    11007.154700       0.907444
    11019.283700       0.910358
    11031.439600       0.913220
    11043.622300       0.916031
    11055.832000       0.918791
    11068.068600       0.921501
    11080.332400       0.924161
    11092.623400       0.926770
    11104.941700       0.929328
    11117.287400       0.931837
    11129.660500       0.934296
    11142.061300       0.936705
    11154.489700       0.939065
    11166.945800       0.941375
    11179.429800       0.943636
    11191.941800       0.945849
    11204.481800       0.948012
    11217.049900       0.950127
    11229.646300       0.952194
    11242.270900       0.954212
    11254.924000       0.956183
    11267.605600       0.958106
    11280.315800       0.959981
    11293.054800       0.961810
    11305.822500       0.963591
    11318.619100       0.965326
    11331.444800       0.967015
    11344.299500       0.968657
    11357.183400       0.970254
    11370.096600       0.971805
    11383.039300       0.973311
    11396.011400       0.974772
    11409.013100       0.976188
    11422.044500       0.977559
    11435.105800       0.978887
    11448.196900       0.980170
    11461.318100       0.981410
    11474.469300       0.982607
    11487.650800       0.983761
    11500.862600       0.984872
    11514.104800       0.985941
    11527.377500       0.986968
    11540.680900       0.987953
    11554.015000       0.988897
    11567.380000       0.989800
    11580.775900       0.990662
    11594.202900       0.991483
    11607.661100       0.992265
    11621.150500       0.993007
    11634.671300       0.993709
    11648.223600       0.994372
    11661.807600       0.994996
    11675.423200       0.995582
    11689.070700       0.996130
    11702.750100       0.996640
    11716.461600       0.997113
    11730.205300       0.997548
    11743.981200       0.997947
    11757.789500       0.998309
    11771.630400       0.998636
    11785.503800       0.998926
    11799.410000       0.999181
    11813.349100       0.999400
    11827.321100       0.999585
    11841.326200       0.999736
    11855.364600       0.999852
    11869.436200       0.999935
    11883.541300       0.999984
    11897.680000       1.000000
    11911.852300       0.999983
    11926.058400       0.999934
    11940.298500       0.999852
    11954.572600       0.999739
    11968.880900       0.999594
    11983.223500       0.999418
    11997.600500       0.999212
    12012.012000       0.998974
    12026.458200       0.998707
    12040.939200       0.998409
    12055.455100       0.998082
    12070.006000       0.997726
    12084.592100       0.997341
    12099.213600       0.996927
    12113.870400       0.996485
    12128.562800       0.996015
    12143.290800       0.995517
    12158.054700       0.994991
    12172.854500       0.994439
    12187.690400       0.993859
    12202.562500       0.993253
    12217.471000       0.992621
    12232.415900       0.991963
    12247.397400       0.991280
    12262.415700       0.990570
    12277.470800       0.989836
    12292.563000       0.989077
    12307.692300       0.988294
    12322.858900       0.987486
    12338.062900       0.986654
    12353.304500       0.985799
    12368.583800       0.984920
    12383.900900       0.984018
    12399.256000       0.983093
    12414.649300       0.982145
    12430.080800       0.981175
    12445.550700       0.980183
    12461.059200       0.979168
    12476.606400       0.978133
    12492.192400       0.977075
    12507.817400       0.975997
    12523.481500       0.974898
    12539.185000       0.973778
    12554.927800       0.972637
    12570.710200       0.971476
    12586.532400       0.970296
    12602.394500       0.969095
    12618.296500       0.967875
    12634.238800       0.966636
    12650.221400       0.965377
    12666.244500       0.964100
    12682.308200       0.962804
    12698.412700       0.961489
    12714.558200       0.960156
    12730.744700       0.958805
    12746.972600       0.957436
    12763.241900       0.956049
    12779.552700       0.954645
    12795.905300       0.953224
    12812.299800       0.951785
    12828.736400       0.950329
    12845.215200       0.948857
    12861.736300       0.947368
    12878.300100       0.945862
    12894.906500       0.944340
    12911.555800       0.942803
    12928.248200       0.941249
    12944.983800       0.939679
    12961.762800       0.938094
    12978.585300       0.936493
    12995.451600       0.934878
    13012.361700       0.933246
    13029.316000       0.931600
    13046.314400       0.929939
    13063.357300       0.928264
    13080.444700       0.926573
    13097.576900       0.924869
    13114.754100       0.923150
    13131.976400       0.921417
    13149.243900       0.919670
    13166.556900       0.917908
    13183.915600       0.916134
    13201.320100       0.914345
    13218.770700       0.912543
    13236.267400       0.910728
    13253.810500       0.908899
    13271.400100       0.907057
    13289.036500       0.905202
    13306.719900       0.903334
    13324.450400       0.901453
    13342.228200       0.899559
    13360.053400       0.897653
    13377.926400       0.895734
    13395.847300       0.893803
    13413.816200       0.891860
    13431.833400       0.889904
    13449.899100       0.887936
    13468.013500       0.885956
    13486.176700       0.883964
    13504.388900       0.881960
    13522.650400       0.879945
    13540.961400       0.877917
    13559.322000       0.875879
    13577.732500       0.873828
    13596.193100       0.871766
    13614.703900       0.869693
    13633.265200       0.867609
    13651.877100       0.865513
    13670.540000       0.863407
    13689.253900       0.861289
    13708.019200       0.859160
    13726.836000       0.857020
    13745.704500       0.854870
    13764.624900       0.852709
    13783.597500       0.850537
    13802.622500       0.848355
    13821.700100       0.846162
    13840.830400       0.843958
    13860.013900       0.841745
    13879.250500       0.839521
    13898.540700       0.837286
    13917.884500       0.835042
    13937.282200       0.832787
    13956.734100       0.830523
    13976.240400       0.828248
    13995.801300       0.825964
    14015.417000       0.823669
    14035.087700       0.821365
    14054.813800       0.819051
    14074.595400       0.816728
    14094.432700       0.814395
    14114.326000       0.812053
    14134.275600       0.809701
    14154.281700       0.807339
    14174.344400       0.804969
    14194.464200       0.802589
    14214.641100       0.800200
    14234.875400       0.797802
    14255.167500       0.795395
    14275.517500       0.792978
    14295.925700       0.790553
    14316.392300       0.788119
    14336.917600       0.785677
    14357.501800       0.783225
    14378.145200       0.780765
    14398.848100       0.778297
    14419.610700       0.775820
    14440.433200       0.773334
    14461.316000       0.770840
    14482.259200       0.768338
    14503.263200       0.765828
    14524.328200       0.763309
    14545.454500       0.760783
    14566.642400       0.758248
    14587.892000       0.755706
    14609.203800       0.753155
    14630.577900       0.750597
    14652.014700       0.748032
    14673.514300       0.745458
    14695.077100       0.742877
    14716.703500       0.740289
    14738.393500       0.737693
    14760.147600       0.735090
    14781.966000       0.732480
    14803.849000       0.729863
    14825.796900       0.727239
    14847.809900       0.724607
    14869.888500       0.721969
    14892.032800       0.719325
    14914.243100       0.716673
    14936.519800       0.714015
    14958.863100       0.711351
    14981.273400       0.708680
    15003.750900       0.706003
    15026.296000       0.703319
    15048.909000       0.700630
    15071.590100       0.697934
    15094.339600       0.695233
    15117.158000       0.692526
    15140.045400       0.689813
    15163.002300       0.687095
    15186.028900       0.684371
    15209.125500       0.681642
    15232.292500       0.678907
    15255.530100       0.676168
    15278.838800       0.673423
    15302.218800       0.670673
    15325.670500       0.667919
    15349.194200       0.665160
    15372.790200       0.662396
    15396.458800       0.659628
    15420.200500       0.656856
    15444.015400       0.654079
    15467.904100       0.651298
    15491.866800       0.648513
    15515.903800       0.645725
    15540.015500       0.642932
    15564.202300       0.640137
    15588.464500       0.637337
    15612.802500       0.634534
    15637.216600       0.631728
    15661.707100       0.628919
    15686.274500       0.626107
    15710.919100       0.623292
    15735.641200       0.620475
    15760.441300       0.617655
    15785.319700       0.614832
    15810.276700       0.612008
    15835.312700       0.609181
    15860.428200       0.606352
    15885.623500       0.603521
    15910.899000       0.600688
    15936.255000       0.597854
    15961.691900       0.595019
    15987.210200       0.592182
    16012.810200       0.589344
    16038.492400       0.586505
    16064.257000       0.583665
    16090.104600       0.580824
    16116.035500       0.577983
    16142.050000       0.575142
    16168.148700       0.572300
    16194.332000       0.569458
    16220.600200       0.566616
    16246.953700       0.563774
    16273.393000       0.560933
    16299.918500       0.558092
    16326.530600       0.555251
    16353.229800       0.552412
    16380.016400       0.549573
    16406.890900       0.546735
    16433.853700       0.543899
    16460.905300       0.541064
    16488.046200       0.538230
    16515.276600       0.535398
    16542.597200       0.532568
    16570.008300       0.529740
    16597.510400       0.526914
    16625.103900       0.524090
    16652.789300       0.521269
    16680.567100       0.518450
    16708.437800       0.515634
    16736.401700       0.512820
    16764.459300       0.510010
    16792.611300       0.507203
    16820.857900       0.504399
    16849.199700       0.501599
    16877.637100       0.498802
    16906.170800       0.496009
    16934.801000       0.493220
    16963.528400       0.490434
    16992.353400       0.487653
    17021.276600       0.484877
    17050.298400       0.482104
    17079.419300       0.479336
    17108.639900       0.476573
    17137.960600       0.473815
    17167.382000       0.471061
    17196.904600       0.468313
    17226.528900       0.465570
    17256.255400       0.462832
    17286.084700       0.460100
    17316.017300       0.457373
    17346.053800       0.454653
    17376.194600       0.451937
    17406.440400       0.449228
    17436.791600       0.446525
    17467.248900       0.443828
    17497.812800       0.441138
    17528.483800       0.438453
    17559.262500       0.435776
    17590.149500       0.433104
    17621.145400       0.430440
    17652.250700       0.427783
    17683.466000       0.425132
    17714.791900       0.422488
    17746.228900       0.419852
    17777.777800       0.417223
    17809.439000       0.414601
    17841.213200       0.411986
    17873.101000       0.409379
    17905.103000       0.406779
    17937.219700       0.404187
    17969.451900       0.401603
    18001.800200       0.399026
    18034.265100       0.396457
    18066.847300       0.393896
    18099.547500       0.391343
    18132.366300       0.388798
    18165.304300       0.386261
    18198.362100       0.383733
    18231.540600       0.381212
    18264.840200       0.378699
    18298.261700       0.376195
    18331.805700       0.373699
    18365.472900       0.371212
    18399.264000       0.368732
    18433.179700       0.366261
    18467.220700       0.363799
    18501.387600       0.361345
    18535.681200       0.358899
    18570.102100       0.356462
    18604.651200       0.354033
    18639.329000       0.351612
    18674.136300       0.349201
    18709.073900       0.346797
    18744.142500       0.344402
    18779.342700       0.342015
    18814.675400       0.339637
    18850.141400       0.337267
    18885.741300       0.334906
    18921.475900       0.332552
    18957.346000       0.330207
    18993.352300       0.327871
    19029.495700       0.325542
    19065.776900       0.323222
    19102.196800       0.320910
    19138.756000       0.318606
    19175.455400       0.316310
    19212.295900       0.314022
    19249.278200       0.311741
    19286.403100       0.309469
    19323.671500       0.307204
    19361.084200       0.304947
    19398.642100       0.302698
    19436.346000       0.300456
    19474.196700       0.298221
    19512.195100       0.295994
    19550.342100       0.293774
    19588.638600       0.291561
    19627.085400       0.289355
    19665.683400       0.287156
    19704.433500       0.284964
    19743.336600       0.282778
    19782.393700       0.280599
    19821.605600       0.278426
    19860.973200       0.276260
    19900.497500       0.274100
    19940.179500       0.271946
    19980.020000       0.269797
    20020.020000       0.267655
    20060.180500       0.265518
    20100.502500       0.263386
    20140.986900       0.261260
    20181.634700       0.259138
    20222.446900       0.257022
    20263.424500       0.254911
    20304.568500       0.252804
    20345.880000       0.250702
    20387.359800       0.248604
    20429.009200       0.246510
    20470.829100       0.244420
    20512.820500       0.242333
    20554.984600       0.240251
    20597.322300       0.238171
    20639.834900       0.236095
    20682.523300       0.234022
    20725.388600       0.231952
    20768.432000       0.229884
    20811.654500       0.227819
    20855.057400       0.225756
    20898.641600       0.223695
    20942.408400       0.221636
    20986.358900       0.219579
    21030.494200       0.217523
    21074.815600       0.215468
    21119.324200       0.213414
    21164.021200       0.211361
    21208.907700       0.209309
    21253.985100       0.207257
    21299.254500       0.205205
    21344.717200       0.203153
    21390.374300       0.201101
    21436.227200       0.199049
    21482.277100       0.196996
    21528.525300       0.194942
    21574.973000       0.192887
    21621.621600       0.190832
    21668.472400       0.188774
    21715.526600       0.186715
    21762.785600       0.184654
    21810.250800       0.182591
    21857.923500       0.180526
    21905.805000       0.178459
    21953.896800       0.176389
    22002.200200       0.174316
    22050.716600       0.172241
    22099.447500       0.170162
    22148.394200       0.168080
    22197.558300       0.165995
    22246.941000       0.163905
    22296.544000       0.161813
    22346.368700       0.159716
    22396.416600       0.157615
    22446.689100       0.155510
    22497.187900       0.153401
    22547.914300       0.151287
    22598.870100       0.149168
    22650.056600       0.147045
    22701.475600       0.144917
    22753.128600       0.142784
    22805.017100       0.140646
    22857.142900       0.138502
    22909.507400       0.136354
    22962.112500       0.134200
    23014.959700       0.132041
    23068.050700       0.129876
    23121.387300       0.127706
    23174.971000       0.125530
    23228.803700       0.123349
    23282.887100       0.121163
    23337.222900       0.118970
    23391.812900       0.116772
    23446.658900       0.114569
    23501.762600       0.112360
    23557.126000       0.110146
    23612.750900       0.107926
    23668.639100       0.105701
    23724.792400       0.103470
    23781.212800       0.101235
    23837.902300       0.098994
    23894.862600       0.096748
    23952.095800       0.094498
    24009.603800       0.092242
    24067.388700       0.089983
    24125.452400       0.087719
    24183.796900       0.085450
    24242.424200       0.083178
    24301.336600       0.080903
    24360.535900       0.078623
    24420.024400       0.076341
    24479.804200       0.074056
    24539.877300       0.071768
    24600.246000       0.069478
    24660.912500       0.067186
    24721.878900       0.064892
    24783.147500       0.062598
    24844.720500       0.060303
    24906.600200       0.058007
    24968.789000       0.055711
    25031.289100       0.053417
    25094.102900       0.051123
    25157.232700       0.048831
    25220.681000       0.046541
    25284.450100       0.044254
    25348.542500       0.041970
    25412.960600       0.039691
    25477.707000       0.037416
