21,   21, MVIRI VIS channel from srf_MET4_1992033_1992034_1801-Release_S10EL_10.dat
Number of data points:
752
Wavenumber (cm-1)   Filter response
     8745.080900       0.000000
     8752.735200       0.000000
     8760.403000       0.000001
     8768.084200       0.000059
     8775.778900       0.000199
     8783.487000       0.000420
     8791.208800       0.000719
     8798.944100       0.001093
     8806.693100       0.001541
     8814.455700       0.002060
     8822.232000       0.002648
     8830.022100       0.003303
     8837.825900       0.004022
     8845.643500       0.004805
     8853.475000       0.005648
     8861.320300       0.006551
     8869.179600       0.007511
     8877.052800       0.008527
     8884.940000       0.009597
     8892.841300       0.010719
     8900.756600       0.011893
     8908.686000       0.013115
     8916.629500       0.014385
     8924.587200       0.015702
     8932.559200       0.017063
     8940.545400       0.018469
     8948.545900       0.019917
     8956.560700       0.021405
     8964.589900       0.022934
     8972.633500       0.024502
     8980.691500       0.026108
     8988.764000       0.027750
     8996.851100       0.029428
     9004.952700       0.031141
     9013.068900       0.032887
     9021.199800       0.034666
     9029.345400       0.036477
     9037.505600       0.038319
     9045.680700       0.040191
     9053.870500       0.042093
     9062.075200       0.044024
     9070.294800       0.045982
     9078.529300       0.047968
     9086.778700       0.049981
     9095.043200       0.052019
     9103.322700       0.054083
     9111.617300       0.056172
     9119.927000       0.058285
     9128.251900       0.060422
     9136.592100       0.062583
     9144.947400       0.064766
     9153.318100       0.066971
     9161.704100       0.069198
     9170.105500       0.071447
     9178.522300       0.073718
     9186.954500       0.076009
     9195.402300       0.078320
     9203.865600       0.080652
     9212.344500       0.083003
     9220.839100       0.085374
     9229.349300       0.087764
     9237.875300       0.090173
     9246.417000       0.092601
     9254.974500       0.095048
     9263.547900       0.097513
     9272.137200       0.099996
     9280.742500       0.102497
     9289.363700       0.105015
     9298.000900       0.107552
     9306.654300       0.110106
     9315.323700       0.112677
     9324.009300       0.115266
     9332.711200       0.117872
     9341.429200       0.120494
     9350.163600       0.123134
     9358.914400       0.125791
     9367.681500       0.128464
     9376.465100       0.131155
     9385.265100       0.133861
     9394.081700       0.136585
     9402.914900       0.139325
     9411.764700       0.142082
     9420.631200       0.144856
     9429.514400       0.147645
     9438.414300       0.150452
     9447.331100       0.153275
     9456.264800       0.156114
     9465.215300       0.158970
     9474.182900       0.161842
     9483.167400       0.164731
     9492.169000       0.167636
     9501.187600       0.170559
     9510.223500       0.173497
     9519.276500       0.176452
     9528.346800       0.179424
     9537.434400       0.182412
     9546.539400       0.185417
     9555.661700       0.188438
     9564.801500       0.191476
     9573.958800       0.194531
     9583.133700       0.197603
     9592.326100       0.200690
     9601.536200       0.203796
     9610.764100       0.206917
     9620.009600       0.210056
     9629.273000       0.213211
     9638.554200       0.216383
     9647.853400       0.219572
     9657.170400       0.222778
     9666.505600       0.226001
     9675.858700       0.229241
     9685.230000       0.232497
     9694.619500       0.235771
     9704.027200       0.239061
     9713.453100       0.242369
     9722.897400       0.245693
     9732.360100       0.249035
     9741.841200       0.252393
     9751.340800       0.255768
     9760.859000       0.259160
     9770.395700       0.262569
     9779.951100       0.265995
     9789.525200       0.269438
     9799.118100       0.272898
     9808.729800       0.276374
     9818.360300       0.279867
     9828.009800       0.283377
     9837.678300       0.286904
     9847.365800       0.290447
     9857.072400       0.294006
     9866.798200       0.297583
     9876.543200       0.301175
     9886.307500       0.304785
     9896.091000       0.308410
     9905.894000       0.312052
     9915.716400       0.315710
     9925.558300       0.319384
     9935.419800       0.323074
     9945.300800       0.326780
     9955.201600       0.330501
     9965.122100       0.334239
     9975.062300       0.337991
     9985.022500       0.341760
     9995.002500       0.345544
    10005.002500       0.349343
    10015.022500       0.353156
    10025.062700       0.356985
    10035.122900       0.360829
    10045.203400       0.364687
    10055.304200       0.368560
    10065.425300       0.372447
    10075.566800       0.376348
    10085.728700       0.380263
    10095.911200       0.384192
    10106.114200       0.388134
    10116.337900       0.392090
    10126.582300       0.396059
    10136.847400       0.400041
    10147.133400       0.404036
    10157.440300       0.408044
    10167.768200       0.412063
    10178.117000       0.416095
    10188.487000       0.420139
    10198.878100       0.424195
    10209.290500       0.428262
    10219.724100       0.432340
    10230.179000       0.436429
    10240.655400       0.440529
    10251.153300       0.444639
    10261.672700       0.448760
    10272.213700       0.452890
    10282.776300       0.457030
    10293.360800       0.461180
    10303.967000       0.465338
    10314.595200       0.469505
    10325.245200       0.473681
    10335.917300       0.477865
    10346.611500       0.482056
    10357.327800       0.486255
    10368.066400       0.490462
    10378.827200       0.494675
    10389.610400       0.498896
    10400.416000       0.503122
    10411.244100       0.507354
    10422.094800       0.511592
    10432.968200       0.515835
    10443.864200       0.520083
    10454.783100       0.524336
    10465.724800       0.528593
    10476.689400       0.532854
    10487.677000       0.537118
    10498.687700       0.541386
    10509.721500       0.545656
    10520.778500       0.549929
    10531.858900       0.554204
    10542.962600       0.558480
    10554.089700       0.562758
    10565.240400       0.567037
    10576.414600       0.571316
    10587.612500       0.575595
    10598.834100       0.579875
    10610.079600       0.584153
    10621.348900       0.588431
    10632.642200       0.592707
    10643.959600       0.596981
    10655.301000       0.601253
    10666.666700       0.605523
    10678.056600       0.609789
    10689.470900       0.614052
    10700.909600       0.618311
    10712.372800       0.622566
    10723.860600       0.626816
    10735.373100       0.631061
    10746.910300       0.635300
    10758.472300       0.639534
    10770.059200       0.643761
    10781.671200       0.647981
    10793.308100       0.652194
    10804.970300       0.656400
    10816.657700       0.660597
    10828.370300       0.664786
    10840.108400       0.668966
    10851.871900       0.673136
    10863.661100       0.677297
    10875.475800       0.681448
    10887.316300       0.685588
    10899.182600       0.689717
    10911.074700       0.693835
    10922.992900       0.697940
    10934.937100       0.702033
    10946.907500       0.706114
    10958.904100       0.710181
    10970.927000       0.714235
    10982.976400       0.718274
    10995.052200       0.722299
    11007.154700       0.726309
    11019.283700       0.730304
    11031.439600       0.734283
    11043.622300       0.738246
    11055.832000       0.742192
    11068.068600       0.746121
    11080.332400       0.750033
    11092.623400       0.753927
    11104.941700       0.757802
    11117.287400       0.761659
    11129.660500       0.765497
    11142.061300       0.769315
    11154.489700       0.773113
    11166.945800       0.776891
    11179.429800       0.780648
    11191.941800       0.784385
    11204.481800       0.788099
    11217.049900       0.791792
    11229.646300       0.795462
    11242.270900       0.799109
    11254.924000       0.802734
    11267.605600       0.806334
    11280.315800       0.809911
    11293.054800       0.813464
    11305.822500       0.816991
    11318.619100       0.820494
    11331.444800       0.823972
    11344.299500       0.827423
    11357.183400       0.830849
    11370.096600       0.834248
    11383.039300       0.837620
    11396.011400       0.840965
    11409.013100       0.844282
    11422.044500       0.847571
    11435.105800       0.850833
    11448.196900       0.854065
    11461.318100       0.857268
    11474.469300       0.860442
    11487.650800       0.863587
    11500.862600       0.866702
    11514.104800       0.869786
    11527.377500       0.872840
    11540.680900       0.875863
    11554.015000       0.878854
    11567.380000       0.881814
    11580.775900       0.884743
    11594.202900       0.887639
    11607.661100       0.890503
    11621.150500       0.893334
    11634.671300       0.896133
    11648.223600       0.898898
    11661.807600       0.901629
    11675.423200       0.904327
    11689.070700       0.906991
    11702.750100       0.909621
    11716.461600       0.912216
    11730.205300       0.914776
    11743.981200       0.917302
    11757.789500       0.919792
    11771.630400       0.922247
    11785.503800       0.924666
    11799.410000       0.927050
    11813.349100       0.929397
    11827.321100       0.931708
    11841.326200       0.933983
    11855.364600       0.936220
    11869.436200       0.938422
    11883.541300       0.940586
    11897.680000       0.942712
    11911.852300       0.944802
    11926.058400       0.946854
    11940.298500       0.948868
    11954.572600       0.950845
    11968.880900       0.952783
    11983.223500       0.954683
    11997.600500       0.956546
    12012.012000       0.958369
    12026.458200       0.960155
    12040.939200       0.961901
    12055.455100       0.963609
    12070.006000       0.965279
    12084.592100       0.966909
    12099.213600       0.968500
    12113.870400       0.970053
    12128.562800       0.971566
    12143.290800       0.973040
    12158.054700       0.974475
    12172.854500       0.975870
    12187.690400       0.977226
    12202.562500       0.978543
    12217.471000       0.979820
    12232.415900       0.981058
    12247.397400       0.982256
    12262.415700       0.983415
    12277.470800       0.984534
    12292.563000       0.985614
    12307.692300       0.986654
    12322.858900       0.987655
    12338.062900       0.988616
    12353.304500       0.989538
    12368.583800       0.990420
    12383.900900       0.991263
    12399.256000       0.992067
    12414.649300       0.992831
    12430.080800       0.993556
    12445.550700       0.994242
    12461.059200       0.994889
    12476.606400       0.995497
    12492.192400       0.996066
    12507.817400       0.996596
    12523.481500       0.997087
    12539.185000       0.997539
    12554.927800       0.997953
    12570.710200       0.998329
    12586.532400       0.998666
    12602.394500       0.998965
    12618.296500       0.999226
    12634.238800       0.999449
    12650.221400       0.999634
    12666.244500       0.999782
    12682.308200       0.999892
    12698.412700       0.999964
    12714.558200       1.000000
    12730.744700       0.999999
    12746.972600       0.999961
    12763.241900       0.999886
    12779.552700       0.999775
    12795.905300       0.999627
    12812.299800       0.999444
    12828.736400       0.999225
    12845.215200       0.998970
    12861.736300       0.998680
    12878.300100       0.998355
    12894.906500       0.997995
    12911.555800       0.997600
    12928.248200       0.997171
    12944.983800       0.996708
    12961.762800       0.996211
    12978.585300       0.995680
    12995.451600       0.995116
    13012.361700       0.994519
    13029.316000       0.993889
    13046.314400       0.993226
    13063.357300       0.992531
    13080.444700       0.991805
    13097.576900       0.991046
    13114.754100       0.990257
    13131.976400       0.989436
    13149.243900       0.988584
    13166.556900       0.987702
    13183.915600       0.986790
    13201.320100       0.985849
    13218.770700       0.984878
    13236.267400       0.983877
    13253.810500       0.982848
    13271.400100       0.981791
    13289.036500       0.980705
    13306.719900       0.979592
    13324.450400       0.978452
    13342.228200       0.977284
    13360.053400       0.976090
    13377.926400       0.974870
    13395.847300       0.973623
    13413.816200       0.972352
    13431.833400       0.971055
    13449.899100       0.969733
    13468.013500       0.968387
    13486.176700       0.967017
    13504.388900       0.965623
    13522.650400       0.964207
    13540.961400       0.962767
    13559.322000       0.961305
    13577.732500       0.959822
    13596.193100       0.958316
    13614.703900       0.956790
    13633.265200       0.955243
    13651.877100       0.953675
    13670.540000       0.952088
    13689.253900       0.950481
    13708.019200       0.948855
    13726.836000       0.947210
    13745.704500       0.945547
    13764.624900       0.943867
    13783.597500       0.942169
    13802.622500       0.940454
    13821.700100       0.938723
    13840.830400       0.936976
    13860.013900       0.935213
    13879.250500       0.933435
    13898.540700       0.931643
    13917.884500       0.929836
    13937.282200       0.928015
    13956.734100       0.926181
    13976.240400       0.924335
    13995.801300       0.922475
    14015.417000       0.920604
    14035.087700       0.918721
    14054.813800       0.916827
    14074.595400       0.914922
    14094.432700       0.913007
    14114.326000       0.911083
    14134.275600       0.909149
    14154.281700       0.907206
    14174.344400       0.905254
    14194.464200       0.903295
    14214.641100       0.901328
    14234.875400       0.899355
    14255.167500       0.897374
    14275.517500       0.895388
    14295.925700       0.893396
    14316.392300       0.891398
    14336.917600       0.889396
    14357.501800       0.887389
    14378.145200       0.885378
    14398.848100       0.883364
    14419.610700       0.881347
    14440.433200       0.879327
    14461.316000       0.877306
    14482.259200       0.875282
    14503.263200       0.873257
    14524.328200       0.871231
    14545.454500       0.869205
    14566.642400       0.867179
    14587.892000       0.865153
    14609.203800       0.863128
    14630.577900       0.861105
    14652.014700       0.859083
    14673.514300       0.857063
    14695.077100       0.855045
    14716.703500       0.853031
    14738.393500       0.851020
    14760.147600       0.849013
    14781.966000       0.847010
    14803.849000       0.845011
    14825.796900       0.843018
    14847.809900       0.841030
    14869.888500       0.839047
    14892.032800       0.837071
    14914.243100       0.835101
    14936.519800       0.833138
    14958.863100       0.831182
    14981.273400       0.829234
    15003.750900       0.827294
    15026.296000       0.825362
    15048.909000       0.823439
    15071.590100       0.821524
    15094.339600       0.819620
    15117.158000       0.817725
    15140.045400       0.815840
    15163.002300       0.813965
    15186.028900       0.812101
    15209.125500       0.810249
    15232.292500       0.808407
    15255.530100       0.806578
    15278.838800       0.804760
    15302.218800       0.802954
    15325.670500       0.801161
    15349.194200       0.799381
    15372.790200       0.797614
    15396.458800       0.795861
    15420.200500       0.794121
    15444.015400       0.792395
    15467.904100       0.790683
    15491.866800       0.788986
    15515.903800       0.787304
    15540.015500       0.785636
    15564.202300       0.783984
    15588.464500       0.782347
    15612.802500       0.780725
    15637.216600       0.779120
    15661.707100       0.777530
    15686.274500       0.775957
    15710.919100       0.774400
    15735.641200       0.772859
    15760.441300       0.771336
    15785.319700       0.769829
    15810.276700       0.768340
    15835.312700       0.766867
    15860.428200       0.765412
    15885.623500       0.763975
    15910.899000       0.762555
    15936.255000       0.761154
    15961.691900       0.759770
    15987.210200       0.758404
    16012.810200       0.757056
    16038.492400       0.755726
    16064.257000       0.754415
    16090.104600       0.753122
    16116.035500       0.751847
    16142.050000       0.750591
    16168.148700       0.749353
    16194.332000       0.748134
    16220.600200       0.746934
    16246.953700       0.745752
    16273.393000       0.744588
    16299.918500       0.743444
    16326.530600       0.742318
    16353.229800       0.741211
    16380.016400       0.740122
    16406.890900       0.739052
    16433.853700       0.738000
    16460.905300       0.736967
    16488.046200       0.735952
    16515.276600       0.734956
    16542.597200       0.733978
    16570.008300       0.733018
    16597.510400       0.732076
    16625.103900       0.731152
    16652.789300       0.730246
    16680.567100       0.729358
    16708.437800       0.728488
    16736.401700       0.727635
    16764.459300       0.726799
    16792.611300       0.725981
    16820.857900       0.725180
    16849.199700       0.724395
    16877.637100       0.723627
    16906.170800       0.722876
    16934.801000       0.722141
    16963.528400       0.721422
    16992.353400       0.720719
    17021.276600       0.720031
    17050.298400       0.719359
    17079.419300       0.718702
    17108.639900       0.718059
    17137.960600       0.717432
    17167.382000       0.716818
    17196.904600       0.716219
    17226.528900       0.715633
    17256.255400       0.715060
    17286.084700       0.714501
    17316.017300       0.713954
    17346.053800       0.713420
    17376.194600       0.712898
    17406.440400       0.712388
    17436.791600       0.711889
    17467.248900       0.711400
    17497.812800       0.710923
    17528.483800       0.710456
    17559.262500       0.709998
    17590.149500       0.709550
    17621.145400       0.709110
    17652.250700       0.708680
    17683.466000       0.708257
    17714.791900       0.707842
    17746.228900       0.707434
    17777.777800       0.707033
    17809.439000       0.706638
    17841.213200       0.706249
    17873.101000       0.705866
    17905.103000       0.705487
    17937.219700       0.705112
    17969.451900       0.704741
    18001.800200       0.704373
    18034.265100       0.704008
    18066.847300       0.703645
    18099.547500       0.703284
    18132.366300       0.702924
    18165.304300       0.702565
    18198.362100       0.702205
    18231.540600       0.701845
    18264.840200       0.701483
    18298.261700       0.701120
    18331.805700       0.700754
    18365.472900       0.700386
    18399.264000       0.700013
    18433.179700       0.699637
    18467.220700       0.699255
    18501.387600       0.698868
    18535.681200       0.698475
    18570.102100       0.698075
    18604.651200       0.697668
    18639.329000       0.697252
    18674.136300       0.696828
    18709.073900       0.696394
    18744.142500       0.695951
    18779.342700       0.695496
    18814.675400       0.695030
    18850.141400       0.694552
    18885.741300       0.694061
    18921.475900       0.693556
    18957.346000       0.693037
    18993.352300       0.692503
    19029.495700       0.691954
    19065.776900       0.691388
    19102.196800       0.690805
    19138.756000       0.690204
    19175.455400       0.689584
    19212.295900       0.688946
    19249.278200       0.688287
    19286.403100       0.687607
    19323.671500       0.686906
    19361.084200       0.686182
    19398.642100       0.685436
    19436.346000       0.684666
    19474.196700       0.683871
    19512.195100       0.683051
    19550.342100       0.682205
    19588.638600       0.681333
    19627.085400       0.680432
    19665.683400       0.679504
    19704.433500       0.678547
    19743.336600       0.677560
    19782.393700       0.676542
    19821.605600       0.675493
    19860.973200       0.674412
    19900.497500       0.673299
    19940.179500       0.672152
    19980.020000       0.670970
    20020.020000       0.669754
    20060.180500       0.668502
    20100.502500       0.667214
    20140.986900       0.665888
    20181.634700       0.664524
    20222.446900       0.663122
    20263.424500       0.661681
    20304.568500       0.660199
    20345.880000       0.658677
    20387.359800       0.657113
    20429.009200       0.655507
    20470.829100       0.653858
    20512.820500       0.652166
    20554.984600       0.650429
    20597.322300       0.648647
    20639.834900       0.646820
    20682.523300       0.644947
    20725.388600       0.643026
    20768.432000       0.641058
    20811.654500       0.639042
    20855.057400       0.636977
    20898.641600       0.634863
    20942.408400       0.632698
    20986.358900       0.630483
    21030.494200       0.628217
    21074.815600       0.625899
    21119.324200       0.623528
    21164.021200       0.621105
    21208.907700       0.618628
    21253.985100       0.616097
    21299.254500       0.613512
    21344.717200       0.610871
    21390.374300       0.608176
    21436.227200       0.605424
    21482.277100       0.602616
    21528.525300       0.599751
    21574.973000       0.596829
    21621.621600       0.593849
    21668.472400       0.590812
    21715.526600       0.587716
    21762.785600       0.584561
    21810.250800       0.581347
    21857.923500       0.578073
    21905.805000       0.574740
    21953.896800       0.571348
    22002.200200       0.567894
    22050.716600       0.564381
    22099.447500       0.560807
    22148.394200       0.557172
    22197.558300       0.553476
    22246.941000       0.549719
    22296.544000       0.545901
    22346.368700       0.542021
    22396.416600       0.538080
    22446.689100       0.534078
    22497.187900       0.530014
    22547.914300       0.525889
    22598.870100       0.521703
    22650.056600       0.517455
    22701.475600       0.513146
    22753.128600       0.508777
    22805.017100       0.504346
    22857.142900       0.499855
    22909.507400       0.495303
    22962.112500       0.490691
    23014.959700       0.486019
    23068.050700       0.481288
    23121.387300       0.476498
    23174.971000       0.471648
    23228.803700       0.466741
    23282.887100       0.461775
    23337.222900       0.456752
    23391.812900       0.451673
    23446.658900       0.446537
    23501.762600       0.441345
    23557.126000       0.436099
    23612.750900       0.430798
    23668.639100       0.425444
    23724.792400       0.420037
    23781.212800       0.414578
    23837.902300       0.409068
    23894.862600       0.403509
    23952.095800       0.397900
    24009.603800       0.392243
    24067.388700       0.386538
    24125.452400       0.380788
    24183.796900       0.374994
    24242.424200       0.369155
    24301.336600       0.363275
    24360.535900       0.357353
    24420.024400       0.351392
    24479.804200       0.345392
    24539.877300       0.339356
    24600.246000       0.333284
    24660.912500       0.327179
    24721.878900       0.321042
    24783.147500       0.314874
    24844.720500       0.308678
    24906.600200       0.302455
    24968.789000       0.296208
    25031.289100       0.289937
    25094.102900       0.283645
    25157.232700       0.277335
    25220.681000       0.271007
    25284.450100       0.264665
    25348.542500       0.258310
    25412.960600       0.251946
    25477.707000       0.245574
