   7  ,noaa_10_hirs_07.flt
Number of data points:
95
Wavenumber (cm-1)   Filter response
      714.970000       0.000000
      720.080000       0.001300
      722.090000       0.002910
      723.640000       0.004814
      725.160000       0.006106
      726.470000       0.007161
      728.040000       0.009386
      729.480000       0.010055
      730.580000       0.013994
      731.570000       0.021513
      732.760000       0.028057
      733.690000       0.037567
      734.380000       0.049466
      735.120000       0.064488
      735.610000       0.083113
      736.110000       0.102170
      736.590000       0.124640
      736.960000       0.142450
      737.450000       0.172390
      737.860000       0.209930
      738.370000       0.247820
      738.860000       0.300840
      739.250000       0.346150
      739.430000       0.381100
      739.670000       0.431240
      740.030000       0.479680
      740.330000       0.523200
      740.690000       0.576390
      741.100000       0.622160
      741.320000       0.652870
      741.600000       0.690540
      741.890000       0.723600
      742.150000       0.751130
      742.400000       0.779440
      742.820000       0.804140
      743.170000       0.823330
      743.640000       0.842660
      744.190000       0.857850
      745.020000       0.868760
      745.590000       0.866030
      746.740000       0.872900
      747.860000       0.887370
      748.620000       0.906300
      749.340000       0.926090
      750.240000       0.950770
      751.020000       0.969040
      751.660000       0.982100
      752.580000       0.993650
      753.370000       1.000000
      754.160000       0.995570
      754.690000       0.984640
      755.060000       0.966990
      755.560000       0.949930
      755.970000       0.927760
      756.350000       0.904890
      756.760000       0.878830
      757.170000       0.855290
      757.320000       0.831780
      757.680000       0.807990
      758.040000       0.779630
      758.290000       0.735410
      758.700000       0.689360
      759.090000       0.638210
      759.430000       0.597160
      759.650000       0.555300
      759.950000       0.516740
      760.150000       0.474380
      760.450000       0.432730
      760.730000       0.392200
      761.240000       0.345220
      761.720000       0.299030
      762.180000       0.260830
      762.510000       0.226780
      762.890000       0.197290
      763.460000       0.170100
      763.840000       0.142730
      764.340000       0.121100
      764.810000       0.098069
      765.330000       0.082124
      766.110000       0.065359
      766.950000       0.050746
      767.930000       0.037997
      769.170000       0.030945
      770.250000       0.024099
      771.310000       0.019107
      772.450000       0.017078
      774.100000       0.014621
      775.400000       0.013481
      776.950000       0.011154
      778.610000       0.010183
      780.020000       0.007454
      781.550000       0.005270
      783.230000       0.003811
      784.400000       0.002785
      785.200000       0.000000
