63,   63, MVIRI VIS channel from srf_MET5_1999033_1999034_1801-Release_S10EL_10.dat
Number of data points:
806
Wavenumber (cm-1)   Filter response
     8350.730700       0.000000
     8357.710000       0.000000
     8364.701000       0.000000
     8371.703600       0.000002
     8378.718100       0.000004
     8385.744200       0.000009
     8392.782200       0.000016
     8399.832000       0.000027
     8406.893700       0.000041
     8413.967200       0.000060
     8421.052600       0.000083
     8428.150000       0.000111
     8435.259400       0.000145
     8442.380800       0.000185
     8449.514200       0.000231
     8456.659600       0.000285
     8463.817200       0.000345
     8470.986900       0.000413
     8478.168700       0.000490
     8485.362700       0.000574
     8492.569000       0.000667
     8499.787500       0.000770
     8507.018300       0.000881
     8514.261400       0.001003
     8521.516800       0.001134
     8528.784600       0.001276
     8536.064900       0.001428
     8543.357500       0.001591
     8550.662700       0.001765
     8557.980300       0.001950
     8565.310500       0.002147
     8572.653200       0.002356
     8580.008600       0.002577
     8587.376600       0.002810
     8594.757200       0.003055
     8602.150500       0.003314
     8609.556600       0.003585
     8616.975400       0.003869
     8624.407100       0.004167
     8631.851500       0.004478
     8639.308900       0.004802
     8646.779100       0.005141
     8654.262200       0.005493
     8661.758300       0.005860
     8669.267400       0.006241
     8676.789600       0.006637
     8684.324800       0.007047
     8691.873100       0.007472
     8699.434500       0.007912
     8707.009100       0.008367
     8714.596900       0.008837
     8722.198000       0.009323
     8729.812300       0.009824
     8737.439900       0.010341
     8745.080900       0.010874
     8752.735200       0.011422
     8760.403000       0.011987
     8768.084200       0.012568
     8775.778900       0.013165
     8783.487000       0.013778
     8791.208800       0.014408
     8798.944100       0.015055
     8806.693100       0.015718
     8814.455700       0.016399
     8822.232000       0.017096
     8830.022100       0.017811
     8837.825900       0.018542
     8845.643500       0.019292
     8853.475000       0.020058
     8861.320300       0.020842
     8869.179600       0.021644
     8877.052800       0.022464
     8884.940000       0.023301
     8892.841300       0.024156
     8900.756600       0.025030
     8908.686000       0.025922
     8916.629500       0.026832
     8924.587200       0.027760
     8932.559200       0.028707
     8940.545400       0.029673
     8948.545900       0.030657
     8956.560700       0.031661
     8964.589900       0.032683
     8972.633500       0.033724
     8980.691500       0.034784
     8988.764000       0.035864
     8996.851100       0.036963
     9004.952700       0.038081
     9013.068900       0.039219
     9021.199800       0.040377
     9029.345400       0.041554
     9037.505600       0.042751
     9045.680700       0.043968
     9053.870500       0.045205
     9062.075200       0.046463
     9070.294800       0.047740
     9078.529300       0.049038
     9086.778700       0.050356
     9095.043200       0.051695
     9103.322700       0.053055
     9111.617300       0.054435
     9119.927000       0.055836
     9128.251900       0.057258
     9136.592100       0.058701
     9144.947400       0.060165
     9153.318100       0.061650
     9161.704100       0.063156
     9170.105500       0.064684
     9178.522300       0.066233
     9186.954500       0.067804
     9195.402300       0.069396
     9203.865600       0.071011
     9212.344500       0.072647
     9220.839100       0.074304
     9229.349300       0.075984
     9237.875300       0.077686
     9246.417000       0.079410
     9254.974500       0.081156
     9263.547900       0.082924
     9272.137200       0.084715
     9280.742500       0.086528
     9289.363700       0.088364
     9298.000900       0.090222
     9306.654300       0.092103
     9315.323700       0.094006
     9324.009300       0.095933
     9332.711200       0.097882
     9341.429200       0.099854
     9350.163600       0.101849
     9358.914400       0.103867
     9367.681500       0.105908
     9376.465100       0.107972
     9385.265100       0.110060
     9394.081700       0.112170
     9402.914900       0.114304
     9411.764700       0.116461
     9420.631200       0.118642
     9429.514400       0.120846
     9438.414300       0.123073
     9447.331100       0.125324
     9456.264800       0.127598
     9465.215300       0.129897
     9474.182900       0.132218
     9483.167400       0.134563
     9492.169000       0.136931
     9501.187600       0.139324
     9510.223500       0.141740
     9519.276500       0.144179
     9528.346800       0.146643
     9537.434400       0.149130
     9546.539400       0.151640
     9555.661700       0.154175
     9564.801500       0.156732
     9573.958800       0.159314
     9583.133700       0.161919
     9592.326100       0.164548
     9601.536200       0.167201
     9610.764100       0.169877
     9620.009600       0.172577
     9629.273000       0.175300
     9638.554200       0.178047
     9647.853400       0.180817
     9657.170400       0.183611
     9666.505600       0.186428
     9675.858700       0.189269
     9685.230000       0.192132
     9694.619500       0.195020
     9704.027200       0.197930
     9713.453100       0.200864
     9722.897400       0.203821
     9732.360100       0.206800
     9741.841200       0.209803
     9751.340800       0.212828
     9760.859000       0.215877
     9770.395700       0.218948
     9779.951100       0.222041
     9789.525200       0.225158
     9799.118100       0.228297
     9808.729800       0.231458
     9818.360300       0.234641
     9828.009800       0.237846
     9837.678300       0.241074
     9847.365800       0.244323
     9857.072400       0.247594
     9866.798200       0.250887
     9876.543200       0.254202
     9886.307500       0.257538
     9896.091000       0.260895
     9905.894000       0.264273
     9915.716400       0.267672
     9925.558300       0.271092
     9935.419800       0.274533
     9945.300800       0.277994
     9955.201600       0.281476
     9965.122100       0.284978
     9975.062300       0.288499
     9985.022500       0.292041
     9995.002500       0.295603
    10005.002500       0.299184
    10015.022500       0.302784
    10025.062700       0.306403
    10035.122900       0.310041
    10045.203400       0.313698
    10055.304200       0.317374
    10065.425300       0.321067
    10075.566800       0.324779
    10085.728700       0.328509
    10095.911200       0.332257
    10106.114200       0.336021
    10116.337900       0.339803
    10126.582300       0.343602
    10136.847400       0.347418
    10147.133400       0.351250
    10157.440300       0.355099
    10167.768200       0.358963
    10178.117000       0.362843
    10188.487000       0.366739
    10198.878100       0.370650
    10209.290500       0.374576
    10219.724100       0.378517
    10230.179000       0.382472
    10240.655400       0.386441
    10251.153300       0.390424
    10261.672700       0.394421
    10272.213700       0.398431
    10282.776300       0.402453
    10293.360800       0.406489
    10303.967000       0.410537
    10314.595200       0.414597
    10325.245200       0.418669
    10335.917300       0.422753
    10346.611500       0.426848
    10357.327800       0.430953
    10368.066400       0.435069
    10378.827200       0.439196
    10389.610400       0.443332
    10400.416000       0.447478
    10411.244100       0.451633
    10422.094800       0.455797
    10432.968200       0.459969
    10443.864200       0.464150
    10454.783100       0.468339
    10465.724800       0.472535
    10476.689400       0.476739
    10487.677000       0.480949
    10498.687700       0.485166
    10509.721500       0.489389
    10520.778500       0.493618
    10531.858900       0.497852
    10542.962600       0.502091
    10554.089700       0.506335
    10565.240400       0.510583
    10576.414600       0.514836
    10587.612500       0.519091
    10598.834100       0.523351
    10610.079600       0.527612
    10621.348900       0.531877
    10632.642200       0.536143
    10643.959600       0.540411
    10655.301000       0.544681
    10666.666700       0.548951
    10678.056600       0.553222
    10689.470900       0.557493
    10700.909600       0.561763
    10712.372800       0.566034
    10723.860600       0.570303
    10735.373100       0.574570
    10746.910300       0.578836
    10758.472300       0.583100
    10770.059200       0.587361
    10781.671200       0.591619
    10793.308100       0.595873
    10804.970300       0.600124
    10816.657700       0.604370
    10828.370300       0.608612
    10840.108400       0.612849
    10851.871900       0.617081
    10863.661100       0.621306
    10875.475800       0.625526
    10887.316300       0.629738
    10899.182600       0.633944
    10911.074700       0.638143
    10922.992900       0.642333
    10934.937100       0.646515
    10946.907500       0.650689
    10958.904100       0.654853
    10970.927000       0.659008
    10982.976400       0.663154
    10995.052200       0.667288
    11007.154700       0.671413
    11019.283700       0.675526
    11031.439600       0.679628
    11043.622300       0.683717
    11055.832000       0.687795
    11068.068600       0.691860
    11080.332400       0.695912
    11092.623400       0.699950
    11104.941700       0.703975
    11117.287400       0.707985
    11129.660500       0.711980
    11142.061300       0.715961
    11154.489700       0.719926
    11166.945800       0.723876
    11179.429800       0.727809
    11191.941800       0.731725
    11204.481800       0.735625
    11217.049900       0.739507
    11229.646300       0.743372
    11242.270900       0.747218
    11254.924000       0.751046
    11267.605600       0.754855
    11280.315800       0.758645
    11293.054800       0.762415
    11305.822500       0.766166
    11318.619100       0.769896
    11331.444800       0.773605
    11344.299500       0.777293
    11357.183400       0.780960
    11370.096600       0.784606
    11383.039300       0.788229
    11396.011400       0.791829
    11409.013100       0.795407
    11422.044500       0.798962
    11435.105800       0.802493
    11448.196900       0.806001
    11461.318100       0.809484
    11474.469300       0.812943
    11487.650800       0.816377
    11500.862600       0.819786
    11514.104800       0.823170
    11527.377500       0.826528
    11540.680900       0.829860
    11554.015000       0.833166
    11567.380000       0.836445
    11580.775900       0.839697
    11594.202900       0.842921
    11607.661100       0.846119
    11621.150500       0.849288
    11634.671300       0.852430
    11648.223600       0.855543
    11661.807600       0.858627
    11675.423200       0.861682
    11689.070700       0.864709
    11702.750100       0.867706
    11716.461600       0.870673
    11730.205300       0.873610
    11743.981200       0.876518
    11757.789500       0.879394
    11771.630400       0.882241
    11785.503800       0.885056
    11799.410000       0.887840
    11813.349100       0.890593
    11827.321100       0.893314
    11841.326200       0.896004
    11855.364600       0.898661
    11869.436200       0.901287
    11883.541300       0.903880
    11897.680000       0.906440
    11911.852300       0.908968
    11926.058400       0.911463
    11940.298500       0.913925
    11954.572600       0.916353
    11968.880900       0.918748
    11983.223500       0.921110
    11997.600500       0.923438
    12012.012000       0.925732
    12026.458200       0.927992
    12040.939200       0.930218
    12055.455100       0.932409
    12070.006000       0.934567
    12084.592100       0.936689
    12099.213600       0.938777
    12113.870400       0.940830
    12128.562800       0.942849
    12143.290800       0.944832
    12158.054700       0.946781
    12172.854500       0.948694
    12187.690400       0.950573
    12202.562500       0.952415
    12217.471000       0.954223
    12232.415900       0.955995
    12247.397400       0.957732
    12262.415700       0.959434
    12277.470800       0.961100
    12292.563000       0.962730
    12307.692300       0.964324
    12322.858900       0.965884
    12338.062900       0.967407
    12353.304500       0.968895
    12368.583800       0.970347
    12383.900900       0.971764
    12399.256000       0.973145
    12414.649300       0.974490
    12430.080800       0.975800
    12445.550700       0.977074
    12461.059200       0.978312
    12476.606400       0.979515
    12492.192400       0.980683
    12507.817400       0.981815
    12523.481500       0.982912
    12539.185000       0.983974
    12554.927800       0.985000
    12570.710200       0.985991
    12586.532400       0.986947
    12602.394500       0.987869
    12618.296500       0.988755
    12634.238800       0.989606
    12650.221400       0.990423
    12666.244500       0.991206
    12682.308200       0.991953
    12698.412700       0.992667
    12714.558200       0.993346
    12730.744700       0.993991
    12746.972600       0.994603
    12763.241900       0.995180
    12779.552700       0.995724
    12795.905300       0.996234
    12812.299800       0.996711
    12828.736400       0.997155
    12845.215200       0.997566
    12861.736300       0.997945
    12878.300100       0.998290
    12894.906500       0.998603
    12911.555800       0.998884
    12928.248200       0.999133
    12944.983800       0.999351
    12961.762800       0.999536
    12978.585300       0.999691
    12995.451600       0.999814
    13012.361700       0.999906
    13029.316000       0.999968
    13046.314400       0.999999
    13063.357300       1.000000
    13080.444700       0.999971
    13097.576900       0.999913
    13114.754100       0.999825
    13131.976400       0.999707
    13149.243900       0.999561
    13166.556900       0.999387
    13183.915600       0.999184
    13201.320100       0.998953
    13218.770700       0.998695
    13236.267400       0.998408
    13253.810500       0.998095
    13271.400100       0.997755
    13289.036500       0.997389
    13306.719900       0.996996
    13324.450400       0.996577
    13342.228200       0.996133
    13360.053400       0.995663
    13377.926400       0.995169
    13395.847300       0.994650
    13413.816200       0.994107
    13431.833400       0.993539
    13449.899100       0.992949
    13468.013500       0.992335
    13486.176700       0.991698
    13504.388900       0.991038
    13522.650400       0.990357
    13540.961400       0.989654
    13559.322000       0.988929
    13577.732500       0.988183
    13596.193100       0.987417
    13614.703900       0.986630
    13633.265200       0.985823
    13651.877100       0.984997
    13670.540000       0.984152
    13689.253900       0.983287
    13708.019200       0.982405
    13726.836000       0.981504
    13745.704500       0.980586
    13764.624900       0.979651
    13783.597500       0.978698
    13802.622500       0.977730
    13821.700100       0.976745
    13840.830400       0.975745
    13860.013900       0.974729
    13879.250500       0.973699
    13898.540700       0.972654
    13917.884500       0.971596
    13937.282200       0.970524
    13956.734100       0.969438
    13976.240400       0.968340
    13995.801300       0.967230
    14015.417000       0.966107
    14035.087700       0.964974
    14054.813800       0.963829
    14074.595400       0.962673
    14094.432700       0.961507
    14114.326000       0.960332
    14134.275600       0.959147
    14154.281700       0.957953
    14174.344400       0.956750
    14194.464200       0.955539
    14214.641100       0.954321
    14234.875400       0.953095
    14255.167500       0.951863
    14275.517500       0.950623
    14295.925700       0.949378
    14316.392300       0.948127
    14336.917600       0.946871
    14357.501800       0.945611
    14378.145200       0.944345
    14398.848100       0.943076
    14419.610700       0.941803
    14440.433200       0.940528
    14461.316000       0.939249
    14482.259200       0.937968
    14503.263200       0.936685
    14524.328200       0.935400
    14545.454500       0.934115
    14566.642400       0.932828
    14587.892000       0.931542
    14609.203800       0.930255
    14630.577900       0.928969
    14652.014700       0.927683
    14673.514300       0.926399
    14695.077100       0.925117
    14716.703500       0.923836
    14738.393500       0.922558
    14760.147600       0.921282
    14781.966000       0.920010
    14803.849000       0.918741
    14825.796900       0.917476
    14847.809900       0.916215
    14869.888500       0.914959
    14892.032800       0.913708
    14914.243100       0.912461
    14936.519800       0.911221
    14958.863100       0.909986
    14981.273400       0.908758
    15003.750900       0.907536
    15026.296000       0.906321
    15048.909000       0.905114
    15071.590100       0.903914
    15094.339600       0.902722
    15117.158000       0.901538
    15140.045400       0.900362
    15163.002300       0.899196
    15186.028900       0.898038
    15209.125500       0.896890
    15232.292500       0.895751
    15255.530100       0.894623
    15278.838800       0.893504
    15302.218800       0.892396
    15325.670500       0.891299
    15349.194200       0.890212
    15372.790200       0.889137
    15396.458800       0.888074
    15420.200500       0.887021
    15444.015400       0.885981
    15467.904100       0.884953
    15491.866800       0.883937
    15515.903800       0.882934
    15540.015500       0.881943
    15564.202300       0.880965
    15588.464500       0.880001
    15612.802500       0.879049
    15637.216600       0.878111
    15661.707100       0.877187
    15686.274500       0.876276
    15710.919100       0.875379
    15735.641200       0.874497
    15760.441300       0.873628
    15785.319700       0.872773
    15810.276700       0.871933
    15835.312700       0.871108
    15860.428200       0.870297
    15885.623500       0.869500
    15910.899000       0.868718
    15936.255000       0.867952
    15961.691900       0.867199
    15987.210200       0.866462
    16012.810200       0.865740
    16038.492400       0.865033
    16064.257000       0.864341
    16090.104600       0.863663
    16116.035500       0.863001
    16142.050000       0.862354
    16168.148700       0.861722
    16194.332000       0.861105
    16220.600200       0.860503
    16246.953700       0.859915
    16273.393000       0.859343
    16299.918500       0.858786
    16326.530600       0.858243
    16353.229800       0.857715
    16380.016400       0.857201
    16406.890900       0.856702
    16433.853700       0.856217
    16460.905300       0.855747
    16488.046200       0.855291
    16515.276600       0.854849
    16542.597200       0.854420
    16570.008300       0.854005
    16597.510400       0.853604
    16625.103900       0.853216
    16652.789300       0.852842
    16680.567100       0.852480
    16708.437800       0.852131
    16736.401700       0.851795
    16764.459300       0.851470
    16792.611300       0.851158
    16820.857900       0.850858
    16849.199700       0.850569
    16877.637100       0.850292
    16906.170800       0.850026
    16934.801000       0.849770
    16963.528400       0.849525
    16992.353400       0.849289
    17021.276600       0.849064
    17050.298400       0.848848
    17079.419300       0.848641
    17108.639900       0.848443
    17137.960600       0.848253
    17167.382000       0.848072
    17196.904600       0.847897
    17226.528900       0.847730
    17256.255400       0.847570
    17286.084700       0.847417
    17316.017300       0.847269
    17346.053800       0.847127
    17376.194600       0.846990
    17406.440400       0.846857
    17436.791600       0.846729
    17467.248900       0.846604
    17497.812800       0.846483
    17528.483800       0.846364
    17559.262500       0.846247
    17590.149500       0.846132
    17621.145400       0.846019
    17652.250700       0.845906
    17683.466000       0.845792
    17714.791900       0.845679
    17746.228900       0.845564
    17777.777800       0.845448
    17809.439000       0.845329
    17841.213200       0.845207
    17873.101000       0.845083
    17905.103000       0.844954
    17937.219700       0.844820
    17969.451900       0.844681
    18001.800200       0.844536
    18034.265100       0.844384
    18066.847300       0.844225
    18099.547500       0.844059
    18132.366300       0.843883
    18165.304300       0.843698
    18198.362100       0.843504
    18231.540600       0.843298
    18264.840200       0.843081
    18298.261700       0.842852
    18331.805700       0.842610
    18365.472900       0.842354
    18399.264000       0.842084
    18433.179700       0.841799
    18467.220700       0.841498
    18501.387600       0.841181
    18535.681200       0.840846
    18570.102100       0.840492
    18604.651200       0.840120
    18639.329000       0.839728
    18674.136300       0.839316
    18709.073900       0.838882
    18744.142500       0.838425
    18779.342700       0.837946
    18814.675400       0.837443
    18850.141400       0.836915
    18885.741300       0.836362
    18921.475900       0.835782
    18957.346000       0.835175
    18993.352300       0.834540
    19029.495700       0.833877
    19065.776900       0.833183
    19102.196800       0.832459
    19138.756000       0.831703
    19175.455400       0.830914
    19212.295900       0.830093
    19249.278200       0.829237
    19286.403100       0.828346
    19323.671500       0.827420
    19361.084200       0.826456
    19398.642100       0.825455
    19436.346000       0.824415
    19474.196700       0.823336
    19512.195100       0.822216
    19550.342100       0.821055
    19588.638600       0.819851
    19627.085400       0.818605
    19665.683400       0.817314
    19704.433500       0.815979
    19743.336600       0.814598
    19782.393700       0.813169
    19821.605600       0.811694
    19860.973200       0.810169
    19900.497500       0.808596
    19940.179500       0.806972
    19980.020000       0.805296
    20020.020000       0.803569
    20060.180500       0.801788
    20100.502500       0.799954
    20140.986900       0.798064
    20181.634700       0.796119
    20222.446900       0.794117
    20263.424500       0.792058
    20304.568500       0.789940
    20345.880000       0.787763
    20387.359800       0.785526
    20429.009200       0.783228
    20470.829100       0.780868
    20512.820500       0.778446
    20554.984600       0.775960
    20597.322300       0.773409
    20639.834900       0.770793
    20682.523300       0.768111
    20725.388600       0.765363
    20768.432000       0.762546
    20811.654500       0.759661
    20855.057400       0.756707
    20898.641600       0.753683
    20942.408400       0.750588
    20986.358900       0.747421
    21030.494200       0.744182
    21074.815600       0.740869
    21119.324200       0.737483
    21164.021200       0.734023
    21208.907700       0.730487
    21253.985100       0.726875
    21299.254500       0.723186
    21344.717200       0.719420
    21390.374300       0.715576
    21436.227200       0.711653
    21482.277100       0.707651
    21528.525300       0.703569
    21574.973000       0.699407
    21621.621600       0.695163
    21668.472400       0.690838
    21715.526600       0.686431
    21762.785600       0.681941
    21810.250800       0.677367
    21857.923500       0.672710
    21905.805000       0.667968
    21953.896800       0.663142
    22002.200200       0.658231
    22050.716600       0.653234
    22099.447500       0.648151
    22148.394200       0.642981
    22197.558300       0.637725
    22246.941000       0.632382
    22296.544000       0.626951
    22346.368700       0.621433
    22396.416600       0.615827
    22446.689100       0.610132
    22497.187900       0.604349
    22547.914300       0.598477
    22598.870100       0.592517
    22650.056600       0.586467
    22701.475600       0.580329
    22753.128600       0.574101
    22805.017100       0.567784
    22857.142900       0.561378
    22909.507400       0.554882
    22962.112500       0.548297
    23014.959700       0.541623
    23068.050700       0.534859
    23121.387300       0.528007
    23174.971000       0.521065
    23228.803700       0.514035
    23282.887100       0.506916
    23337.222900       0.499709
    23391.812900       0.492414
    23446.658900       0.485031
    23501.762600       0.477561
    23557.126000       0.470003
    23612.750900       0.462359
    23668.639100       0.454629
    23724.792400       0.446813
    23781.212800       0.438912
    23837.902300       0.430926
    23894.862600       0.422856
    23952.095800       0.414702
    24009.603800       0.406466
    24067.388700       0.398148
    24125.452400       0.389748
    24183.796900       0.381268
    24242.424200       0.372708
    24301.336600       0.364070
    24360.535900       0.355353
    24420.024400       0.346560
    24479.804200       0.337690
    24539.877300       0.328746
    24600.246000       0.319728
    24660.912500       0.310637
    24721.878900       0.301475
    24783.147500       0.292243
    24844.720500       0.282942
    24906.600200       0.273573
    24968.789000       0.264138
    25031.289100       0.254638
    25094.102900       0.245075
    25157.232700       0.235450
    25220.681000       0.225765
    25284.450100       0.216021
    25348.542500       0.206220
    25412.960600       0.196365
    25477.707000       0.186456
