50,   50, MVIRI VIS channel from srf_MET7_2003303_2003304_1801-Release_S10EE_10.dat
Number of data points:
793
Wavenumber (cm-1)   Filter response
     8442.380800       0.000000
     8449.514200       0.000000
     8456.659600       0.000004
     8463.817200       0.000054
     8470.986900       0.000161
     8478.168700       0.000321
     8485.362700       0.000534
     8492.569000       0.000799
     8499.787500       0.001114
     8507.018300       0.001476
     8514.261400       0.001886
     8521.516800       0.002341
     8528.784600       0.002841
     8536.064900       0.003383
     8543.357500       0.003968
     8550.662700       0.004593
     8557.980300       0.005258
     8565.310500       0.005962
     8572.653200       0.006703
     8580.008600       0.007481
     8587.376600       0.008294
     8594.757200       0.009142
     8602.150500       0.010024
     8609.556600       0.010939
     8616.975400       0.011885
     8624.407100       0.012864
     8631.851500       0.013873
     8639.308900       0.014912
     8646.779100       0.015981
     8654.262200       0.017078
     8661.758300       0.018204
     8669.267400       0.019357
     8676.789600       0.020537
     8684.324800       0.021743
     8691.873100       0.022975
     8699.434500       0.024234
     8707.009100       0.025517
     8714.596900       0.026824
     8722.198000       0.028156
     8729.812300       0.029512
     8737.439900       0.030892
     8745.080900       0.032294
     8752.735200       0.033720
     8760.403000       0.035168
     8768.084200       0.036639
     8775.778900       0.038132
     8783.487000       0.039647
     8791.208800       0.041183
     8798.944100       0.042741
     8806.693100       0.044320
     8814.455700       0.045921
     8822.232000       0.047543
     8830.022100       0.049185
     8837.825900       0.050848
     8845.643500       0.052532
     8853.475000       0.054237
     8861.320300       0.055962
     8869.179600       0.057708
     8877.052800       0.059474
     8884.940000       0.061260
     8892.841300       0.063067
     8900.756600       0.064894
     8908.686000       0.066741
     8916.629500       0.068609
     8924.587200       0.070497
     8932.559200       0.072405
     8940.545400       0.074334
     8948.545900       0.076283
     8956.560700       0.078253
     8964.589900       0.080243
     8972.633500       0.082253
     8980.691500       0.084284
     8988.764000       0.086336
     8996.851100       0.088408
     9004.952700       0.090501
     9013.068900       0.092615
     9021.199800       0.094750
     9029.345400       0.096906
     9037.505600       0.099083
     9045.680700       0.101281
     9053.870500       0.103500
     9062.075200       0.105740
     9070.294800       0.108003
     9078.529300       0.110286
     9086.778700       0.112591
     9095.043200       0.114918
     9103.322700       0.117266
     9111.617300       0.119636
     9119.927000       0.122028
     9128.251900       0.124443
     9136.592100       0.126879
     9144.947400       0.129338
     9153.318100       0.131819
     9161.704100       0.134322
     9170.105500       0.136848
     9178.522300       0.139397
     9186.954500       0.141968
     9195.402300       0.144562
     9203.865600       0.147178
     9212.344500       0.149818
     9220.839100       0.152481
     9229.349300       0.155166
     9237.875300       0.157875
     9246.417000       0.160607
     9254.974500       0.163362
     9263.547900       0.166140
     9272.137200       0.168942
     9280.742500       0.171767
     9289.363700       0.174615
     9298.000900       0.177487
     9306.654300       0.180383
     9315.323700       0.183302
     9324.009300       0.186244
     9332.711200       0.189211
     9341.429200       0.192200
     9350.163600       0.195214
     9358.914400       0.198250
     9367.681500       0.201311
     9376.465100       0.204395
     9385.265100       0.207503
     9394.081700       0.210634
     9402.914900       0.213789
     9411.764700       0.216967
     9420.631200       0.220169
     9429.514400       0.223394
     9438.414300       0.226643
     9447.331100       0.229915
     9456.264800       0.233211
     9465.215300       0.236529
     9474.182900       0.239871
     9483.167400       0.243236
     9492.169000       0.246624
     9501.187600       0.250035
     9510.223500       0.253469
     9519.276500       0.256925
     9528.346800       0.260404
     9537.434400       0.263906
     9546.539400       0.267429
     9555.661700       0.270976
     9564.801500       0.274544
     9573.958800       0.278135
     9583.133700       0.281747
     9592.326100       0.285381
     9601.536200       0.289036
     9610.764100       0.292713
     9620.009600       0.296411
     9629.273000       0.300131
     9638.554200       0.303871
     9647.853400       0.307632
     9657.170400       0.311413
     9666.505600       0.315214
     9675.858700       0.319036
     9685.230000       0.322877
     9694.619500       0.326739
     9704.027200       0.330619
     9713.453100       0.334519
     9722.897400       0.338438
     9732.360100       0.342375
     9741.841200       0.346331
     9751.340800       0.350304
     9760.859000       0.354297
     9770.395700       0.358306
     9779.951100       0.362333
     9789.525200       0.366378
     9799.118100       0.370439
     9808.729800       0.374516
     9818.360300       0.378610
     9828.009800       0.382720
     9837.678300       0.386845
     9847.365800       0.390986
     9857.072400       0.395142
     9866.798200       0.399313
     9876.543200       0.403497
     9886.307500       0.407696
     9896.091000       0.411909
     9905.894000       0.416135
     9915.716400       0.420374
     9925.558300       0.424626
     9935.419800       0.428890
     9945.300800       0.433166
     9955.201600       0.437453
     9965.122100       0.441752
     9975.062300       0.446062
     9985.022500       0.450382
     9995.002500       0.454712
    10005.002500       0.459052
    10015.022500       0.463401
    10025.062700       0.467760
    10035.122900       0.472126
    10045.203400       0.476501
    10055.304200       0.480884
    10065.425300       0.485273
    10075.566800       0.489670
    10085.728700       0.494073
    10095.911200       0.498482
    10106.114200       0.502897
    10116.337900       0.507317
    10126.582300       0.511742
    10136.847400       0.516171
    10147.133400       0.520605
    10157.440300       0.525041
    10167.768200       0.529481
    10178.117000       0.533923
    10188.487000       0.538368
    10198.878100       0.542814
    10209.290500       0.547262
    10219.724100       0.551710
    10230.179000       0.556159
    10240.655400       0.560608
    10251.153300       0.565056
    10261.672700       0.569503
    10272.213700       0.573949
    10282.776300       0.578393
    10293.360800       0.582835
    10303.967000       0.587273
    10314.595200       0.591709
    10325.245200       0.596141
    10335.917300       0.600568
    10346.611500       0.604991
    10357.327800       0.609409
    10368.066400       0.613821
    10378.827200       0.618227
    10389.610400       0.622627
    10400.416000       0.627020
    10411.244100       0.631405
    10422.094800       0.635783
    10432.968200       0.640152
    10443.864200       0.644512
    10454.783100       0.648863
    10465.724800       0.653204
    10476.689400       0.657535
    10487.677000       0.661856
    10498.687700       0.666165
    10509.721500       0.670463
    10520.778500       0.674748
    10531.858900       0.679021
    10542.962600       0.683281
    10554.089700       0.687528
    10565.240400       0.691760
    10576.414600       0.695979
    10587.612500       0.700182
    10598.834100       0.704371
    10610.079600       0.708544
    10621.348900       0.712700
    10632.642200       0.716840
    10643.959600       0.720963
    10655.301000       0.725069
    10666.666700       0.729157
    10678.056600       0.733226
    10689.470900       0.737277
    10700.909600       0.741308
    10712.372800       0.745320
    10723.860600       0.749312
    10735.373100       0.753283
    10746.910300       0.757234
    10758.472300       0.761163
    10770.059200       0.765071
    10781.671200       0.768956
    10793.308100       0.772819
    10804.970300       0.776659
    10816.657700       0.780476
    10828.370300       0.784269
    10840.108400       0.788038
    10851.871900       0.791783
    10863.661100       0.795503
    10875.475800       0.799197
    10887.316300       0.802866
    10899.182600       0.806509
    10911.074700       0.810126
    10922.992900       0.813716
    10934.937100       0.817279
    10946.907500       0.820814
    10958.904100       0.824322
    10970.927000       0.827802
    10982.976400       0.831253
    10995.052200       0.834675
    11007.154700       0.838069
    11019.283700       0.841433
    11031.439600       0.844767
    11043.622300       0.848071
    11055.832000       0.851345
    11068.068600       0.854588
    11080.332400       0.857800
    11092.623400       0.860981
    11104.941700       0.864130
    11117.287400       0.867248
    11129.660500       0.870333
    11142.061300       0.873386
    11154.489700       0.876406
    11166.945800       0.879394
    11179.429800       0.882348
    11191.941800       0.885269
    11204.481800       0.888156
    11217.049900       0.891009
    11229.646300       0.893828
    11242.270900       0.896613
    11254.924000       0.899363
    11267.605600       0.902079
    11280.315800       0.904759
    11293.054800       0.907404
    11305.822500       0.910014
    11318.619100       0.912588
    11331.444800       0.915126
    11344.299500       0.917629
    11357.183400       0.920095
    11370.096600       0.922525
    11383.039300       0.924918
    11396.011400       0.927275
    11409.013100       0.929595
    11422.044500       0.931879
    11435.105800       0.934125
    11448.196900       0.936334
    11461.318100       0.938506
    11474.469300       0.940640
    11487.650800       0.942737
    11500.862600       0.944796
    11514.104800       0.946818
    11527.377500       0.948802
    11540.680900       0.950747
    11554.015000       0.952656
    11567.380000       0.954525
    11580.775900       0.956357
    11594.202900       0.958151
    11607.661100       0.959907
    11621.150500       0.961624
    11634.671300       0.963303
    11648.223600       0.964944
    11661.807600       0.966547
    11675.423200       0.968111
    11689.070700       0.969637
    11702.750100       0.971124
    11716.461600       0.972574
    11730.205300       0.973985
    11743.981200       0.975357
    11757.789500       0.976692
    11771.630400       0.977988
    11785.503800       0.979246
    11799.410000       0.980466
    11813.349100       0.981648
    11827.321100       0.982791
    11841.326200       0.983897
    11855.364600       0.984965
    11869.436200       0.985995
    11883.541300       0.986987
    11897.680000       0.987942
    11911.852300       0.988859
    11926.058400       0.989738
    11940.298500       0.990581
    11954.572600       0.991386
    11968.880900       0.992154
    11983.223500       0.992885
    11997.600500       0.993579
    12012.012000       0.994237
    12026.458200       0.994858
    12040.939200       0.995442
    12055.455100       0.995991
    12070.006000       0.996503
    12084.592100       0.996980
    12099.213600       0.997420
    12113.870400       0.997826
    12128.562800       0.998196
    12143.290800       0.998531
    12158.054700       0.998831
    12172.854500       0.999096
    12187.690400       0.999327
    12202.562500       0.999523
    12217.471000       0.999686
    12232.415900       0.999814
    12247.397400       0.999909
    12262.415700       0.999971
    12277.470800       1.000000
    12292.563000       0.999996
    12307.692300       0.999959
    12322.858900       0.999890
    12338.062900       0.999789
    12353.304500       0.999657
    12368.583800       0.999493
    12383.900900       0.999297
    12399.256000       0.999071
    12414.649300       0.998815
    12430.080800       0.998528
    12445.550700       0.998211
    12461.059200       0.997864
    12476.606400       0.997488
    12492.192400       0.997083
    12507.817400       0.996650
    12523.481500       0.996188
    12539.185000       0.995698
    12554.927800       0.995180
    12570.710200       0.994635
    12586.532400       0.994063
    12602.394500       0.993465
    12618.296500       0.992840
    12634.238800       0.992189
    12650.221400       0.991513
    12666.244500       0.990811
    12682.308200       0.990085
    12698.412700       0.989335
    12714.558200       0.988560
    12730.744700       0.987762
    12746.972600       0.986940
    12763.241900       0.986095
    12779.552700       0.985228
    12795.905300       0.984339
    12812.299800       0.983429
    12828.736400       0.982497
    12845.215200       0.981544
    12861.736300       0.980570
    12878.300100       0.979577
    12894.906500       0.978564
    12911.555800       0.977532
    12928.248200       0.976481
    12944.983800       0.975411
    12961.762800       0.974324
    12978.585300       0.973219
    12995.451600       0.972097
    13012.361700       0.970958
    13029.316000       0.969804
    13046.314400       0.968633
    13063.357300       0.967447
    13080.444700       0.966246
    13097.576900       0.965031
    13114.754100       0.963801
    13131.976400       0.962558
    13149.243900       0.961302
    13166.556900       0.960033
    13183.915600       0.958752
    13201.320100       0.957460
    13218.770700       0.956155
    13236.267400       0.954840
    13253.810500       0.953515
    13271.400100       0.952179
    13289.036500       0.950834
    13306.719900       0.949480
    13324.450400       0.948117
    13342.228200       0.946746
    13360.053400       0.945367
    13377.926400       0.943981
    13395.847300       0.942588
    13413.816200       0.941189
    13431.833400       0.939783
    13449.899100       0.938373
    13468.013500       0.936957
    13486.176700       0.935537
    13504.388900       0.934112
    13522.650400       0.932684
    13540.961400       0.931252
    13559.322000       0.929818
    13577.732500       0.928382
    13596.193100       0.926943
    13614.703900       0.925503
    13633.265200       0.924062
    13651.877100       0.922620
    13670.540000       0.921179
    13689.253900       0.919737
    13708.019200       0.918296
    13726.836000       0.916856
    13745.704500       0.915418
    13764.624900       0.913982
    13783.597500       0.912548
    13802.622500       0.911117
    13821.700100       0.909690
    13840.830400       0.908266
    13860.013900       0.906846
    13879.250500       0.905430
    13898.540700       0.904019
    13917.884500       0.902614
    13937.282200       0.901214
    13956.734100       0.899821
    13976.240400       0.898434
    13995.801300       0.897053
    14015.417000       0.895680
    14035.087700       0.894315
    14054.813800       0.892958
    14074.595400       0.891609
    14094.432700       0.890268
    14114.326000       0.888937
    14134.275600       0.887615
    14154.281700       0.886303
    14174.344400       0.885002
    14194.464200       0.883710
    14214.641100       0.882430
    14234.875400       0.881161
    14255.167500       0.879903
    14275.517500       0.878657
    14295.925700       0.877423
    14316.392300       0.876202
    14336.917600       0.874994
    14357.501800       0.873798
    14378.145200       0.872616
    14398.848100       0.871448
    14419.610700       0.870294
    14440.433200       0.869154
    14461.316000       0.868028
    14482.259200       0.866917
    14503.263200       0.865822
    14524.328200       0.864741
    14545.454500       0.863676
    14566.642400       0.862627
    14587.892000       0.861594
    14609.203800       0.860578
    14630.577900       0.859577
    14652.014700       0.858594
    14673.514300       0.857627
    14695.077100       0.856678
    14716.703500       0.855746
    14738.393500       0.854831
    14760.147600       0.853934
    14781.966000       0.853055
    14803.849000       0.852194
    14825.796900       0.851351
    14847.809900       0.850526
    14869.888500       0.849720
    14892.032800       0.848932
    14914.243100       0.848164
    14936.519800       0.847414
    14958.863100       0.846683
    14981.273400       0.845971
    15003.750900       0.845278
    15026.296000       0.844605
    15048.909000       0.843951
    15071.590100       0.843316
    15094.339600       0.842701
    15117.158000       0.842105
    15140.045400       0.841529
    15163.002300       0.840972
    15186.028900       0.840435
    15209.125500       0.839918
    15232.292500       0.839420
    15255.530100       0.838942
    15278.838800       0.838484
    15302.218800       0.838045
    15325.670500       0.837626
    15349.194200       0.837227
    15372.790200       0.836847
    15396.458800       0.836486
    15420.200500       0.836145
    15444.015400       0.835824
    15467.904100       0.835521
    15491.866800       0.835238
    15515.903800       0.834974
    15540.015500       0.834729
    15564.202300       0.834502
    15588.464500       0.834295
    15612.802500       0.834106
    15637.216600       0.833935
    15661.707100       0.833783
    15686.274500       0.833649
    15710.919100       0.833533
    15735.641200       0.833434
    15760.441300       0.833354
    15785.319700       0.833290
    15810.276700       0.833244
    15835.312700       0.833214
    15860.428200       0.833202
    15885.623500       0.833206
    15910.899000       0.833226
    15936.255000       0.833262
    15961.691900       0.833313
    15987.210200       0.833380
    16012.810200       0.833463
    16038.492400       0.833560
    16064.257000       0.833671
    16090.104600       0.833797
    16116.035500       0.833936
    16142.050000       0.834089
    16168.148700       0.834255
    16194.332000       0.834434
    16220.600200       0.834626
    16246.953700       0.834829
    16273.393000       0.835045
    16299.918500       0.835271
    16326.530600       0.835508
    16353.229800       0.835756
    16380.016400       0.836014
    16406.890900       0.836281
    16433.853700       0.836558
    16460.905300       0.836843
    16488.046200       0.837137
    16515.276600       0.837438
    16542.597200       0.837747
    16570.008300       0.838062
    16597.510400       0.838384
    16625.103900       0.838711
    16652.789300       0.839044
    16680.567100       0.839382
    16708.437800       0.839723
    16736.401700       0.840069
    16764.459300       0.840417
    16792.611300       0.840768
    16820.857900       0.841121
    16849.199700       0.841476
    16877.637100       0.841831
    16906.170800       0.842187
    16934.801000       0.842542
    16963.528400       0.842896
    16992.353400       0.843249
    17021.276600       0.843600
    17050.298400       0.843947
    17079.419300       0.844291
    17108.639900       0.844631
    17137.960600       0.844966
    17167.382000       0.845296
    17196.904600       0.845620
    17226.528900       0.845937
    17256.255400       0.846246
    17286.084700       0.846547
    17316.017300       0.846839
    17346.053800       0.847122
    17376.194600       0.847394
    17406.440400       0.847655
    17436.791600       0.847905
    17467.248900       0.848142
    17497.812800       0.848366
    17528.483800       0.848576
    17559.262500       0.848771
    17590.149500       0.848950
    17621.145400       0.849114
    17652.250700       0.849260
    17683.466000       0.849389
    17714.791900       0.849499
    17746.228900       0.849590
    17777.777800       0.849661
    17809.439000       0.849711
    17841.213200       0.849739
    17873.101000       0.849745
    17905.103000       0.849728
    17937.219700       0.849686
    17969.451900       0.849620
    18001.800200       0.849528
    18034.265100       0.849409
    18066.847300       0.849263
    18099.547500       0.849089
    18132.366300       0.848886
    18165.304300       0.848653
    18198.362100       0.848390
    18231.540600       0.848095
    18264.840200       0.847768
    18298.261700       0.847408
    18331.805700       0.847014
    18365.472900       0.846586
    18399.264000       0.846121
    18433.179700       0.845621
    18467.220700       0.845083
    18501.387600       0.844507
    18535.681200       0.843892
    18570.102100       0.843238
    18604.651200       0.842543
    18639.329000       0.841806
    18674.136300       0.841028
    18709.073900       0.840206
    18744.142500       0.839341
    18779.342700       0.838431
    18814.675400       0.837476
    18850.141400       0.836474
    18885.741300       0.835425
    18921.475900       0.834329
    18957.346000       0.833183
    18993.352300       0.831988
    19029.495700       0.830743
    19065.776900       0.829447
    19102.196800       0.828100
    19138.756000       0.826699
    19175.455400       0.825245
    19212.295900       0.823737
    19249.278200       0.822174
    19286.403100       0.820556
    19323.671500       0.818881
    19361.084200       0.817149
    19398.642100       0.815359
    19436.346000       0.813511
    19474.196700       0.811604
    19512.195100       0.809636
    19550.342100       0.807608
    19588.638600       0.805518
    19627.085400       0.803367
    19665.683400       0.801153
    19704.433500       0.798876
    19743.336600       0.796534
    19782.393700       0.794128
    19821.605600       0.791657
    19860.973200       0.789120
    19900.497500       0.786517
    19940.179500       0.783847
    19980.020000       0.781110
    20020.020000       0.778304
    20060.180500       0.775430
    20100.502500       0.772487
    20140.986900       0.769474
    20181.634700       0.766392
    20222.446900       0.763238
    20263.424500       0.760014
    20304.568500       0.756719
    20345.880000       0.753351
    20387.359800       0.749912
    20429.009200       0.746400
    20470.829100       0.742815
    20512.820500       0.739157
    20554.984600       0.735425
    20597.322300       0.731619
    20639.834900       0.727739
    20682.523300       0.723785
    20725.388600       0.719756
    20768.432000       0.715653
    20811.654500       0.711474
    20855.057400       0.707220
    20898.641600       0.702892
    20942.408400       0.698487
    20986.358900       0.694007
    21030.494200       0.689452
    21074.815600       0.684821
    21119.324200       0.680114
    21164.021200       0.675332
    21208.907700       0.670475
    21253.985100       0.665542
    21299.254500       0.660533
    21344.717200       0.655450
    21390.374300       0.650291
    21436.227200       0.645058
    21482.277100       0.639750
    21528.525300       0.634368
    21574.973000       0.628912
    21621.621600       0.623383
    21668.472400       0.617780
    21715.526600       0.612104
    21762.785600       0.606356
    21810.250800       0.600535
    21857.923500       0.594644
    21905.805000       0.588681
    21953.896800       0.582648
    22002.200200       0.576545
    22050.716600       0.570373
    22099.447500       0.564133
    22148.394200       0.557825
    22197.558300       0.551451
    22246.941000       0.545010
    22296.544000       0.538504
    22346.368700       0.531934
    22396.416600       0.525301
    22446.689100       0.518605
    22497.187900       0.511848
    22547.914300       0.505031
    22598.870100       0.498155
    22650.056600       0.491221
    22701.475600       0.484230
    22753.128600       0.477185
    22805.017100       0.470085
    22857.142900       0.462932
    22909.507400       0.455728
    22962.112500       0.448474
    23014.959700       0.441173
    23068.050700       0.433824
    23121.387300       0.426431
    23174.971000       0.418994
    23228.803700       0.411515
    23282.887100       0.403997
    23337.222900       0.396441
    23391.812900       0.388849
    23446.658900       0.381223
    23501.762600       0.373565
    23557.126000       0.365876
    23612.750900       0.358161
    23668.639100       0.350419
    23724.792400       0.342654
    23781.212800       0.334869
    23837.902300       0.327064
    23894.862600       0.319244
    23952.095800       0.311410
    24009.603800       0.303565
    24067.388700       0.295712
    24125.452400       0.287853
    24183.796900       0.279991
    24242.424200       0.272129
    24301.336600       0.264271
    24360.535900       0.256418
    24420.024400       0.248574
    24479.804200       0.240743
    24539.877300       0.232927
    24600.246000       0.225130
    24660.912500       0.217354
    24721.878900       0.209605
    24783.147500       0.201884
    24844.720500       0.194196
    24906.600200       0.186544
    24968.789000       0.178933
    25031.289100       0.171365
    25094.102900       0.163846
    25157.232700       0.156378
    25220.681000       0.148966
    25284.450100       0.141614
    25348.542500       0.134326
    25412.960600       0.127107
    25477.707000       0.119962
