90,   90, MVIRI VIS channel from srf_MET5_2002168_2002169_1801-Release_S10EL_10.dat
Number of data points:
806
Wavenumber (cm-1)   Filter response
     8350.730700       0.000000
     8357.710000       0.000000
     8364.701000       0.000000
     8371.703600       0.000002
     8378.718100       0.000004
     8385.744200       0.000009
     8392.782200       0.000017
     8399.832000       0.000027
     8406.893700       0.000042
     8413.967200       0.000061
     8421.052600       0.000084
     8428.150000       0.000113
     8435.259400       0.000148
     8442.380800       0.000188
     8449.514200       0.000235
     8456.659600       0.000290
     8463.817200       0.000351
     8470.986900       0.000420
     8478.168700       0.000498
     8485.362700       0.000584
     8492.569000       0.000679
     8499.787500       0.000783
     8507.018300       0.000896
     8514.261400       0.001020
     8521.516800       0.001153
     8528.784600       0.001297
     8536.064900       0.001452
     8543.357500       0.001618
     8550.662700       0.001794
     8557.980300       0.001983
     8565.310500       0.002183
     8572.653200       0.002395
     8580.008600       0.002620
     8587.376600       0.002857
     8594.757200       0.003106
     8602.150500       0.003369
     8609.556600       0.003644
     8616.975400       0.003933
     8624.407100       0.004235
     8631.851500       0.004551
     8639.308900       0.004881
     8646.779100       0.005225
     8654.262200       0.005583
     8661.758300       0.005956
     8669.267400       0.006343
     8676.789600       0.006745
     8684.324800       0.007161
     8691.873100       0.007593
     8699.434500       0.008040
     8707.009100       0.008502
     8714.596900       0.008980
     8722.198000       0.009473
     8729.812300       0.009982
     8737.439900       0.010507
     8745.080900       0.011048
     8752.735200       0.011605
     8760.403000       0.012178
     8768.084200       0.012768
     8775.778900       0.013374
     8783.487000       0.013997
     8791.208800       0.014637
     8798.944100       0.015293
     8806.693100       0.015967
     8814.455700       0.016657
     8822.232000       0.017365
     8830.022100       0.018090
     8837.825900       0.018833
     8845.643500       0.019593
     8853.475000       0.020371
     8861.320300       0.021167
     8869.179600       0.021980
     8877.052800       0.022812
     8884.940000       0.023662
     8892.841300       0.024530
     8900.756600       0.025416
     8908.686000       0.026321
     8916.629500       0.027244
     8924.587200       0.028186
     8932.559200       0.029147
     8940.545400       0.030126
     8948.545900       0.031125
     8956.560700       0.032142
     8964.589900       0.033179
     8972.633500       0.034235
     8980.691500       0.035310
     8988.764000       0.036405
     8996.851100       0.037519
     9004.952700       0.038654
     9013.068900       0.039807
     9021.199800       0.040981
     9029.345400       0.042175
     9037.505600       0.043388
     9045.680700       0.044622
     9053.870500       0.045876
     9062.075200       0.047151
     9070.294800       0.048446
     9078.529300       0.049761
     9086.778700       0.051097
     9095.043200       0.052455
     9103.322700       0.053832
     9111.617300       0.055231
     9119.927000       0.056650
     9128.251900       0.058091
     9136.592100       0.059553
     9144.947400       0.061037
     9153.318100       0.062541
     9161.704100       0.064067
     9170.105500       0.065615
     9178.522300       0.067185
     9186.954500       0.068776
     9195.402300       0.070389
     9203.865600       0.072024
     9212.344500       0.073681
     9220.839100       0.075360
     9229.349300       0.077061
     9237.875300       0.078784
     9246.417000       0.080530
     9254.974500       0.082298
     9263.547900       0.084088
     9272.137200       0.085901
     9280.742500       0.087737
     9289.363700       0.089595
     9298.000900       0.091477
     9306.654300       0.093381
     9315.323700       0.095307
     9324.009300       0.097257
     9332.711200       0.099230
     9341.429200       0.101226
     9350.163600       0.103245
     9358.914400       0.105287
     9367.681500       0.107353
     9376.465100       0.109441
     9385.265100       0.111553
     9394.081700       0.113689
     9402.914900       0.115848
     9411.764700       0.118030
     9420.631200       0.120236
     9429.514400       0.122465
     9438.414300       0.124719
     9447.331100       0.126995
     9456.264800       0.129296
     9465.215300       0.131620
     9474.182900       0.133967
     9483.167400       0.136339
     9492.169000       0.138734
     9501.187600       0.141153
     9510.223500       0.143596
     9519.276500       0.146062
     9528.346800       0.148552
     9537.434400       0.151067
     9546.539400       0.153604
     9555.661700       0.156166
     9564.801500       0.158751
     9573.958800       0.161361
     9583.133700       0.163994
     9592.326100       0.166651
     9601.536200       0.169331
     9610.764100       0.172035
     9620.009600       0.174763
     9629.273000       0.177515
     9638.554200       0.180290
     9647.853400       0.183089
     9657.170400       0.185911
     9666.505600       0.188757
     9675.858700       0.191627
     9685.230000       0.194519
     9694.619500       0.197435
     9704.027200       0.200374
     9713.453100       0.203337
     9722.897400       0.206323
     9732.360100       0.209331
     9741.841200       0.212363
     9751.340800       0.215418
     9760.859000       0.218495
     9770.395700       0.221596
     9779.951100       0.224719
     9789.525200       0.227864
     9799.118100       0.231033
     9808.729800       0.234223
     9818.360300       0.237436
     9828.009800       0.240670
     9837.678300       0.243927
     9847.365800       0.247206
     9857.072400       0.250507
     9866.798200       0.253829
     9876.543200       0.257173
     9886.307500       0.260538
     9896.091000       0.263924
     9905.894000       0.267332
     9915.716400       0.270760
     9925.558300       0.274209
     9935.419800       0.277680
     9945.300800       0.281170
     9955.201600       0.284681
     9965.122100       0.288212
     9975.062300       0.291762
     9985.022500       0.295333
     9995.002500       0.298924
    10005.002500       0.302533
    10015.022500       0.306162
    10025.062700       0.309810
    10035.122900       0.313477
    10045.203400       0.317162
    10055.304200       0.320866
    10065.425300       0.324588
    10075.566800       0.328328
    10085.728700       0.332085
    10095.911200       0.335861
    10106.114200       0.339653
    10116.337900       0.343463
    10126.582300       0.347289
    10136.847400       0.351132
    10147.133400       0.354992
    10157.440300       0.358867
    10167.768200       0.362759
    10178.117000       0.366666
    10188.487000       0.370588
    10198.878100       0.374525
    10209.290500       0.378477
    10219.724100       0.382444
    10230.179000       0.386424
    10240.655400       0.390419
    10251.153300       0.394428
    10261.672700       0.398450
    10272.213700       0.402484
    10282.776300       0.406532
    10293.360800       0.410592
    10303.967000       0.414665
    10314.595200       0.418749
    10325.245200       0.422844
    10335.917300       0.426952
    10346.611500       0.431070
    10357.327800       0.435198
    10368.066400       0.439337
    10378.827200       0.443486
    10389.610400       0.447644
    10400.416000       0.451812
    10411.244100       0.455989
    10422.094800       0.460174
    10432.968200       0.464368
    10443.864200       0.468569
    10454.783100       0.472778
    10465.724800       0.476995
    10476.689400       0.481218
    10487.677000       0.485448
    10498.687700       0.489684
    10509.721500       0.493926
    10520.778500       0.498173
    10531.858900       0.502425
    10542.962600       0.506682
    10554.089700       0.510944
    10565.240400       0.515209
    10576.414600       0.519478
    10587.612500       0.523750
    10598.834100       0.528025
    10610.079600       0.532302
    10621.348900       0.536582
    10632.642200       0.540863
    10643.959600       0.545146
    10655.301000       0.549429
    10666.666700       0.553713
    10678.056600       0.557997
    10689.470900       0.562280
    10700.909600       0.566564
    10712.372800       0.570846
    10723.860600       0.575126
    10735.373100       0.579405
    10746.910300       0.583681
    10758.472300       0.587955
    10770.059200       0.592226
    10781.671200       0.596493
    10793.308100       0.600756
    10804.970300       0.605016
    10816.657700       0.609270
    10828.370300       0.613520
    10840.108400       0.617763
    10851.871900       0.622001
    10863.661100       0.626233
    10875.475800       0.630458
    10887.316300       0.634676
    10899.182600       0.638886
    10911.074700       0.643089
    10922.992900       0.647283
    10934.937100       0.651468
    10946.907500       0.655645
    10958.904100       0.659811
    10970.927000       0.663968
    10982.976400       0.668114
    10995.052200       0.672250
    11007.154700       0.676374
    11019.283700       0.680487
    11031.439600       0.684588
    11043.622300       0.688676
    11055.832000       0.692752
    11068.068600       0.696814
    11080.332400       0.700863
    11092.623400       0.704898
    11104.941700       0.708918
    11117.287400       0.712924
    11129.660500       0.716914
    11142.061300       0.720889
    11154.489700       0.724848
    11166.945800       0.728791
    11179.429800       0.732717
    11191.941800       0.736626
    11204.481800       0.740517
    11217.049900       0.744390
    11229.646300       0.748245
    11242.270900       0.752081
    11254.924000       0.755899
    11267.605600       0.759697
    11280.315800       0.763475
    11293.054800       0.767233
    11305.822500       0.770971
    11318.619100       0.774687
    11331.444800       0.778383
    11344.299500       0.782057
    11357.183400       0.785709
    11370.096600       0.789338
    11383.039300       0.792945
    11396.011400       0.796529
    11409.013100       0.800090
    11422.044500       0.803627
    11435.105800       0.807140
    11448.196900       0.810629
    11461.318100       0.814093
    11474.469300       0.817532
    11487.650800       0.820945
    11500.862600       0.824333
    11514.104800       0.827695
    11527.377500       0.831031
    11540.680900       0.834340
    11554.015000       0.837623
    11567.380000       0.840878
    11580.775900       0.844106
    11594.202900       0.847305
    11607.661100       0.850477
    11621.150500       0.853621
    11634.671300       0.856736
    11648.223600       0.859822
    11661.807600       0.862878
    11675.423200       0.865906
    11689.070700       0.868904
    11702.750100       0.871871
    11716.461600       0.874809
    11730.205300       0.877716
    11743.981200       0.880592
    11757.789500       0.883438
    11771.630400       0.886252
    11785.503800       0.889035
    11799.410000       0.891786
    11813.349100       0.894506
    11827.321100       0.897193
    11841.326200       0.899849
    11855.364600       0.902471
    11869.436200       0.905062
    11883.541300       0.907619
    11897.680000       0.910143
    11911.852300       0.912634
    11926.058400       0.915092
    11940.298500       0.917516
    11954.572600       0.919906
    11968.880900       0.922262
    11983.223500       0.924585
    11997.600500       0.926873
    12012.012000       0.929127
    12026.458200       0.931347
    12040.939200       0.933531
    12055.455100       0.935681
    12070.006000       0.937797
    12084.592100       0.939877
    12099.213600       0.941922
    12113.870400       0.943932
    12128.562800       0.945907
    12143.290800       0.947847
    12158.054700       0.949751
    12172.854500       0.951619
    12187.690400       0.953452
    12202.562500       0.955250
    12217.471000       0.957011
    12232.415900       0.958737
    12247.397400       0.960427
    12262.415700       0.962081
    12277.470800       0.963699
    12292.563000       0.965282
    12307.692300       0.966828
    12322.858900       0.968338
    12338.062900       0.969813
    12353.304500       0.971251
    12368.583800       0.972653
    12383.900900       0.974020
    12399.256000       0.975350
    12414.649300       0.976645
    12430.080800       0.977903
    12445.550700       0.979126
    12461.059200       0.980313
    12476.606400       0.981464
    12492.192400       0.982579
    12507.817400       0.983659
    12523.481500       0.984703
    12539.185000       0.985711
    12554.927800       0.986684
    12570.710200       0.987621
    12586.532400       0.988523
    12602.394500       0.989390
    12618.296500       0.990222
    12634.238800       0.991018
    12650.221400       0.991780
    12666.244500       0.992507
    12682.308200       0.993199
    12698.412700       0.993857
    12714.558200       0.994480
    12730.744700       0.995069
    12746.972600       0.995623
    12763.241900       0.996144
    12779.552700       0.996631
    12795.905300       0.997084
    12812.299800       0.997504
    12828.736400       0.997891
    12845.215200       0.998244
    12861.736300       0.998564
    12878.300100       0.998852
    12894.906500       0.999107
    12911.555800       0.999329
    12928.248200       0.999520
    12944.983800       0.999678
    12961.762800       0.999805
    12978.585300       0.999901
    12995.451600       0.999965
    13012.361700       0.999998
    13029.316000       1.000000
    13046.314400       0.999972
    13063.357300       0.999913
    13080.444700       0.999825
    13097.576900       0.999706
    13114.754100       0.999558
    13131.976400       0.999381
    13149.243900       0.999175
    13166.556900       0.998940
    13183.915600       0.998677
    13201.320100       0.998386
    13218.770700       0.998067
    13236.267400       0.997721
    13253.810500       0.997347
    13271.400100       0.996946
    13289.036500       0.996519
    13306.719900       0.996066
    13324.450400       0.995586
    13342.228200       0.995081
    13360.053400       0.994551
    13377.926400       0.993996
    13395.847300       0.993416
    13413.816200       0.992812
    13431.833400       0.992184
    13449.899100       0.991532
    13468.013500       0.990857
    13486.176700       0.990160
    13504.388900       0.989439
    13522.650400       0.988697
    13540.961400       0.987933
    13559.322000       0.987147
    13577.732500       0.986341
    13596.193100       0.985513
    13614.703900       0.984666
    13633.265200       0.983798
    13651.877100       0.982911
    13670.540000       0.982005
    13689.253900       0.981080
    13708.019200       0.980137
    13726.836000       0.979176
    13745.704500       0.978197
    13764.624900       0.977201
    13783.597500       0.976189
    13802.622500       0.975159
    13821.700100       0.974114
    13840.830400       0.973054
    13860.013900       0.971978
    13879.250500       0.970888
    13898.540700       0.969783
    13917.884500       0.968664
    13937.282200       0.967532
    13956.734100       0.966386
    13976.240400       0.965228
    13995.801300       0.964058
    14015.417000       0.962876
    14035.087700       0.961682
    14054.813800       0.960478
    14074.595400       0.959263
    14094.432700       0.958038
    14114.326000       0.956802
    14134.275600       0.955558
    14154.281700       0.954305
    14174.344400       0.953043
    14194.464200       0.951773
    14214.641100       0.950496
    14234.875400       0.949211
    14255.167500       0.947919
    14275.517500       0.946621
    14295.925700       0.945317
    14316.392300       0.944008
    14336.917600       0.942693
    14357.501800       0.941374
    14378.145200       0.940050
    14398.848100       0.938722
    14419.610700       0.937391
    14440.433200       0.936057
    14461.316000       0.934720
    14482.259200       0.933381
    14503.263200       0.932040
    14524.328200       0.930697
    14545.454500       0.929354
    14566.642400       0.928010
    14587.892000       0.926665
    14609.203800       0.925321
    14630.577900       0.923977
    14652.014700       0.922634
    14673.514300       0.921292
    14695.077100       0.919952
    14716.703500       0.918614
    14738.393500       0.917278
    14760.147600       0.915945
    14781.966000       0.914615
    14803.849000       0.913289
    14825.796900       0.911967
    14847.809900       0.910648
    14869.888500       0.909335
    14892.032800       0.908026
    14914.243100       0.906723
    14936.519800       0.905425
    14958.863100       0.904133
    14981.273400       0.902848
    15003.750900       0.901569
    15026.296000       0.900297
    15048.909000       0.899032
    15071.590100       0.897775
    15094.339600       0.896526
    15117.158000       0.895285
    15140.045400       0.894052
    15163.002300       0.892828
    15186.028900       0.891614
    15209.125500       0.890408
    15232.292500       0.889212
    15255.530100       0.888027
    15278.838800       0.886851
    15302.218800       0.885685
    15325.670500       0.884531
    15349.194200       0.883387
    15372.790200       0.882254
    15396.458800       0.881133
    15420.200500       0.880023
    15444.015400       0.878925
    15467.904100       0.877839
    15491.866800       0.876766
    15515.903800       0.875705
    15540.015500       0.874656
    15564.202300       0.873620
    15588.464500       0.872598
    15612.802500       0.871588
    15637.216600       0.870592
    15661.707100       0.869609
    15686.274500       0.868640
    15710.919100       0.867684
    15735.641200       0.866743
    15760.441300       0.865815
    15785.319700       0.864902
    15810.276700       0.864003
    15835.312700       0.863118
    15860.428200       0.862247
    15885.623500       0.861392
    15910.899000       0.860550
    15936.255000       0.859724
    15961.691900       0.858912
    15987.210200       0.858114
    16012.810200       0.857332
    16038.492400       0.856564
    16064.257000       0.855812
    16090.104600       0.855074
    16116.035500       0.854351
    16142.050000       0.853643
    16168.148700       0.852949
    16194.332000       0.852271
    16220.600200       0.851607
    16246.953700       0.850958
    16273.393000       0.850324
    16299.918500       0.849704
    16326.530600       0.849099
    16353.229800       0.848508
    16380.016400       0.847932
    16406.890900       0.847370
    16433.853700       0.846822
    16460.905300       0.846289
    16488.046200       0.845769
    16515.276600       0.845263
    16542.597200       0.844770
    16570.008300       0.844291
    16597.510400       0.843826
    16625.103900       0.843373
    16652.789300       0.842934
    16680.567100       0.842507
    16708.437800       0.842093
    16736.401700       0.841691
    16764.459300       0.841301
    16792.611300       0.840923
    16820.857900       0.840556
    16849.199700       0.840201
    16877.637100       0.839857
    16906.170800       0.839524
    16934.801000       0.839201
    16963.528400       0.838889
    16992.353400       0.838586
    17021.276600       0.838293
    17050.298400       0.838009
    17079.419300       0.837734
    17108.639900       0.837467
    17137.960600       0.837209
    17167.382000       0.836959
    17196.904600       0.836716
    17226.528900       0.836480
    17256.255400       0.836250
    17286.084700       0.836027
    17316.017300       0.835809
    17346.053800       0.835597
    17376.194600       0.835390
    17406.440400       0.835187
    17436.791600       0.834988
    17467.248900       0.834793
    17497.812800       0.834601
    17528.483800       0.834411
    17559.262500       0.834224
    17590.149500       0.834038
    17621.145400       0.833853
    17652.250700       0.833668
    17683.466000       0.833483
    17714.791900       0.833298
    17746.228900       0.833111
    17777.777800       0.832923
    17809.439000       0.832732
    17841.213200       0.832539
    17873.101000       0.832342
    17905.103000       0.832141
    17937.219700       0.831935
    17969.451900       0.831724
    18001.800200       0.831507
    18034.265100       0.831283
    18066.847300       0.831052
    18099.547500       0.830813
    18132.366300       0.830565
    18165.304300       0.830308
    18198.362100       0.830041
    18231.540600       0.829763
    18264.840200       0.829475
    18298.261700       0.829174
    18331.805700       0.828860
    18365.472900       0.828533
    18399.264000       0.828191
    18433.179700       0.827835
    18467.220700       0.827463
    18501.387600       0.827074
    18535.681200       0.826668
    18570.102100       0.826245
    18604.651200       0.825802
    18639.329000       0.825340
    18674.136300       0.824858
    18709.073900       0.824354
    18744.142500       0.823829
    18779.342700       0.823281
    18814.675400       0.822710
    18850.141400       0.822114
    18885.741300       0.821493
    18921.475900       0.820846
    18957.346000       0.820172
    18993.352300       0.819471
    19029.495700       0.818742
    19065.776900       0.817983
    19102.196800       0.817194
    19138.756000       0.816374
    19175.455400       0.815522
    19212.295900       0.814638
    19249.278200       0.813720
    19286.403100       0.812767
    19323.671500       0.811780
    19361.084200       0.810756
    19398.642100       0.809696
    19436.346000       0.808597
    19474.196700       0.807460
    19512.195100       0.806283
    19550.342100       0.805066
    19588.638600       0.803808
    19627.085400       0.802507
    19665.683400       0.801163
    19704.433500       0.799776
    19743.336600       0.798343
    19782.393700       0.796865
    19821.605600       0.795340
    19860.973200       0.793768
    19900.497500       0.792148
    19940.179500       0.790478
    19980.020000       0.788758
    20020.020000       0.786988
    20060.180500       0.785165
    20100.502500       0.783290
    20140.986900       0.781362
    20181.634700       0.779379
    20222.446900       0.777341
    20263.424500       0.775247
    20304.568500       0.773096
    20345.880000       0.770887
    20387.359800       0.768620
    20429.009200       0.766294
    20470.829100       0.763907
    20512.820500       0.761459
    20554.984600       0.758949
    20597.322300       0.756377
    20639.834900       0.753741
    20682.523300       0.751042
    20725.388600       0.748277
    20768.432000       0.745446
    20811.654500       0.742549
    20855.057400       0.739585
    20898.641600       0.736552
    20942.408400       0.733451
    20986.358900       0.730280
    21030.494200       0.727039
    21074.815600       0.723728
    21119.324200       0.720344
    21164.021200       0.716888
    21208.907700       0.713360
    21253.985100       0.709757
    21299.254500       0.706081
    21344.717200       0.702330
    21390.374300       0.698503
    21436.227200       0.694600
    21482.277100       0.690620
    21528.525300       0.686563
    21574.973000       0.682428
    21621.621600       0.678215
    21668.472400       0.673923
    21715.526600       0.669551
    21762.785600       0.665100
    21810.250800       0.660568
    21857.923500       0.655955
    21905.805000       0.651261
    21953.896800       0.646485
    22002.200200       0.641627
    22050.716600       0.636687
    22099.447500       0.631663
    22148.394200       0.626557
    22197.558300       0.621367
    22246.941000       0.616093
    22296.544000       0.610735
    22346.368700       0.605292
    22396.416600       0.599765
    22446.689100       0.594153
    22497.187900       0.588456
    22547.914300       0.582674
    22598.870100       0.576807
    22650.056600       0.570854
    22701.475600       0.564816
    22753.128600       0.558692
    22805.017100       0.552482
    22857.142900       0.546187
    22909.507400       0.539806
    22962.112500       0.533340
    23014.959700       0.526788
    23068.050700       0.520151
    23121.387300       0.513428
    23174.971000       0.506621
    23228.803700       0.499729
    23282.887100       0.492752
    23337.222900       0.485690
    23391.812900       0.478545
    23446.658900       0.471315
    23501.762600       0.464003
    23557.126000       0.456607
    23612.750900       0.449129
    23668.639100       0.441569
    23724.792400       0.433927
    23781.212800       0.426204
    23837.902300       0.418400
    23894.862600       0.410517
    23952.095800       0.402554
    24009.603800       0.394513
    24067.388700       0.386394
    24125.452400       0.378198
    24183.796900       0.369926
    24242.424200       0.361578
    24301.336600       0.353155
    24360.535900       0.344659
    24420.024400       0.336090
    24479.804200       0.327450
    24539.877300       0.318739
    24600.246000       0.309958
    24660.912500       0.301109
    24721.878900       0.292193
    24783.147500       0.283211
    24844.720500       0.274164
    24906.600200       0.265054
    24968.789000       0.255882
    25031.289100       0.246649
    25094.102900       0.237357
    25157.232700       0.228008
    25220.681000       0.218602
    25284.450100       0.209142
    25348.542500       0.199629
    25412.960600       0.190065
    25477.707000       0.180452
