19,   19, MVIRI VIS channel from srf_MET7_1999348_1999349_1801-Release_S10EE_10.dat
Number of data points:
793
Wavenumber (cm-1)   Filter response
     8442.380800       0.000000
     8449.514200       0.000000
     8456.659600       0.000004
     8463.817200       0.000053
     8470.986900       0.000155
     8478.168700       0.000311
     8485.362700       0.000517
     8492.569000       0.000773
     8499.787500       0.001077
     8507.018300       0.001428
     8514.261400       0.001824
     8521.516800       0.002265
     8528.784600       0.002748
     8536.064900       0.003274
     8543.357500       0.003839
     8550.662700       0.004445
     8557.980300       0.005088
     8565.310500       0.005770
     8572.653200       0.006487
     8580.008600       0.007240
     8587.376600       0.008028
     8594.757200       0.008849
     8602.150500       0.009703
     8609.556600       0.010589
     8616.975400       0.011507
     8624.407100       0.012455
     8631.851500       0.013433
     8639.308900       0.014440
     8646.779100       0.015476
     8654.262200       0.016539
     8661.758300       0.017630
     8669.267400       0.018748
     8676.789600       0.019892
     8684.324800       0.021062
     8691.873100       0.022257
     8699.434500       0.023477
     8707.009100       0.024722
     8714.596900       0.025990
     8722.198000       0.027283
     8729.812300       0.028598
     8737.439900       0.029937
     8745.080900       0.031298
     8752.735200       0.032682
     8760.403000       0.034088
     8768.084200       0.035515
     8775.778900       0.036965
     8783.487000       0.038436
     8791.208800       0.039928
     8798.944100       0.041441
     8806.693100       0.042975
     8814.455700       0.044530
     8822.232000       0.046105
     8830.022100       0.047701
     8837.825900       0.049317
     8845.643500       0.050954
     8853.475000       0.052610
     8861.320300       0.054287
     8869.179600       0.055984
     8877.052800       0.057701
     8884.940000       0.059438
     8892.841300       0.061195
     8900.756600       0.062972
     8908.686000       0.064769
     8916.629500       0.066586
     8924.587200       0.068423
     8932.559200       0.070280
     8940.545400       0.072157
     8948.545900       0.074054
     8956.560700       0.075971
     8964.589900       0.077908
     8972.633500       0.079865
     8980.691500       0.081843
     8988.764000       0.083841
     8996.851100       0.085859
     9004.952700       0.087898
     9013.068900       0.089957
     9021.199800       0.092037
     9029.345400       0.094137
     9037.505600       0.096258
     9045.680700       0.098400
     9053.870500       0.100563
     9062.075200       0.102747
     9070.294800       0.104952
     9078.529300       0.107179
     9086.778700       0.109426
     9095.043200       0.111695
     9103.322700       0.113986
     9111.617300       0.116298
     9119.927000       0.118632
     9128.251900       0.120987
     9136.592100       0.123365
     9144.947400       0.125764
     9153.318100       0.128186
     9161.704100       0.130629
     9170.105500       0.133095
     9178.522300       0.135583
     9186.954500       0.138094
     9195.402300       0.140627
     9203.865600       0.143182
     9212.344500       0.145761
     9220.839100       0.148362
     9229.349300       0.150986
     9237.875300       0.153633
     9246.417000       0.156302
     9254.974500       0.158995
     9263.547900       0.161711
     9272.137200       0.164450
     9280.742500       0.167212
     9289.363700       0.169997
     9298.000900       0.172806
     9306.654300       0.175638
     9315.323700       0.178493
     9324.009300       0.181372
     9332.711200       0.184274
     9341.429200       0.187200
     9350.163600       0.190149
     9358.914400       0.193121
     9367.681500       0.196117
     9376.465100       0.199137
     9385.265100       0.202180
     9394.081700       0.205246
     9402.914900       0.208336
     9411.764700       0.211449
     9420.631200       0.214586
     9429.514400       0.217746
     9438.414300       0.220929
     9447.331100       0.224136
     9456.264800       0.227366
     9465.215300       0.230619
     9474.182900       0.233895
     9483.167400       0.237194
     9492.169000       0.240516
     9501.187600       0.243862
     9510.223500       0.247230
     9519.276500       0.250621
     9528.346800       0.254034
     9537.434400       0.257470
     9546.539400       0.260929
     9555.661700       0.264409
     9564.801500       0.267912
     9573.958800       0.271437
     9583.133700       0.274985
     9592.326100       0.278553
     9601.536200       0.282144
     9610.764100       0.285755
     9620.009600       0.289389
     9629.273000       0.293043
     9638.554200       0.296719
     9647.853400       0.300415
     9657.170400       0.304132
     9666.505600       0.307870
     9675.858700       0.311627
     9685.230000       0.315405
     9694.619500       0.319203
     9704.027200       0.323020
     9713.453100       0.326857
     9722.897400       0.330713
     9732.360100       0.334588
     9741.841200       0.338481
     9751.340800       0.342393
     9760.859000       0.346324
     9770.395700       0.350272
     9779.951100       0.354238
     9789.525200       0.358222
     9799.118100       0.362223
     9808.729800       0.366241
     9818.360300       0.370275
     9828.009800       0.374326
     9837.678300       0.378393
     9847.365800       0.382475
     9857.072400       0.386573
     9866.798200       0.390686
     9876.543200       0.394814
     9886.307500       0.398957
     9896.091000       0.403114
     9905.894000       0.407284
     9915.716400       0.411468
     9925.558300       0.415665
     9935.419800       0.419876
     9945.300800       0.424099
     9955.201600       0.428333
     9965.122100       0.432580
     9975.062300       0.436838
     9985.022500       0.441107
     9995.002500       0.445387
    10005.002500       0.449678
    10015.022500       0.453978
    10025.062700       0.458288
    10035.122900       0.462606
    10045.203400       0.466934
    10055.304200       0.471271
    10065.425300       0.475615
    10075.566800       0.479967
    10085.728700       0.484326
    10095.911200       0.488692
    10106.114200       0.493064
    10116.337900       0.497442
    10126.582300       0.501826
    10136.847400       0.506215
    10147.133400       0.510609
    10157.440300       0.515007
    10167.768200       0.519409
    10178.117000       0.523815
    10188.487000       0.528223
    10198.878100       0.532635
    10209.290500       0.537048
    10219.724100       0.541463
    10230.179000       0.545880
    10240.655400       0.550297
    10251.153300       0.554715
    10261.672700       0.559133
    10272.213700       0.563550
    10282.776300       0.567966
    10293.360800       0.572381
    10303.967000       0.576794
    10314.595200       0.581205
    10325.245200       0.585614
    10335.917300       0.590019
    10346.611500       0.594420
    10357.327800       0.598818
    10368.066400       0.603210
    10378.827200       0.607598
    10389.610400       0.611981
    10400.416000       0.616358
    10411.244100       0.620728
    10422.094800       0.625091
    10432.968200       0.629447
    10443.864200       0.633796
    10454.783100       0.638136
    10465.724800       0.642468
    10476.689400       0.646791
    10487.677000       0.651104
    10498.687700       0.655407
    10509.721500       0.659700
    10520.778500       0.663982
    10531.858900       0.668253
    10542.962600       0.672512
    10554.089700       0.676758
    10565.240400       0.680992
    10576.414600       0.685213
    10587.612500       0.689420
    10598.834100       0.693613
    10610.079600       0.697792
    10621.348900       0.701956
    10632.642200       0.706104
    10643.959600       0.710237
    10655.301000       0.714354
    10666.666700       0.718454
    10678.056600       0.722537
    10689.470900       0.726602
    10700.909600       0.730650
    10712.372800       0.734679
    10723.860600       0.738690
    10735.373100       0.742681
    10746.910300       0.746653
    10758.472300       0.750605
    10770.059200       0.754536
    10781.671200       0.758447
    10793.308100       0.762336
    10804.970300       0.766204
    10816.657700       0.770050
    10828.370300       0.773873
    10840.108400       0.777674
    10851.871900       0.781451
    10863.661100       0.785205
    10875.475800       0.788935
    10887.316300       0.792641
    10899.182600       0.796322
    10911.074700       0.799978
    10922.992900       0.803608
    10934.937100       0.807213
    10946.907500       0.810792
    10958.904100       0.814344
    10970.927000       0.817870
    10982.976400       0.821368
    10995.052200       0.824839
    11007.154700       0.828282
    11019.283700       0.831697
    11031.439600       0.835084
    11043.622300       0.838441
    11055.832000       0.841770
    11068.068600       0.845069
    11080.332400       0.848339
    11092.623400       0.851579
    11104.941700       0.854788
    11117.287400       0.857966
    11129.660500       0.861114
    11142.061300       0.864231
    11154.489700       0.867316
    11166.945800       0.870370
    11179.429800       0.873392
    11191.941800       0.876381
    11204.481800       0.879338
    11217.049900       0.882263
    11229.646300       0.885154
    11242.270900       0.888012
    11254.924000       0.890837
    11267.605600       0.893629
    11280.315800       0.896386
    11293.054800       0.899110
    11305.822500       0.901799
    11318.619100       0.904454
    11331.444800       0.907074
    11344.299500       0.909659
    11357.183400       0.912210
    11370.096600       0.914725
    11383.039300       0.917205
    11396.011400       0.919649
    11409.013100       0.922058
    11422.044500       0.924431
    11435.105800       0.926768
    11448.196900       0.929069
    11461.318100       0.931334
    11474.469300       0.933562
    11487.650800       0.935754
    11500.862600       0.937909
    11514.104800       0.940028
    11527.377500       0.942110
    11540.680900       0.944155
    11554.015000       0.946163
    11567.380000       0.948134
    11580.775900       0.950068
    11594.202900       0.951965
    11607.661100       0.953825
    11621.150500       0.955647
    11634.671300       0.957432
    11648.223600       0.959180
    11661.807600       0.960890
    11675.423200       0.962563
    11689.070700       0.964199
    11702.750100       0.965797
    11716.461600       0.967357
    11730.205300       0.968880
    11743.981200       0.970366
    11757.789500       0.971814
    11771.630400       0.973225
    11785.503800       0.974599
    11799.410000       0.975935
    11813.349100       0.977233
    11827.321100       0.978495
    11841.326200       0.979719
    11855.364600       0.980906
    11869.436200       0.982056
    11883.541300       0.983169
    11897.680000       0.984245
    11911.852300       0.985284
    11926.058400       0.986287
    11940.298500       0.987253
    11954.572600       0.988182
    11968.880900       0.989074
    11983.223500       0.989931
    11997.600500       0.990751
    12012.012000       0.991535
    12026.458200       0.992283
    12040.939200       0.992995
    12055.455100       0.993672
    12070.006000       0.994313
    12084.592100       0.994919
    12099.213600       0.995490
    12113.870400       0.996025
    12128.562800       0.996526
    12143.290800       0.996992
    12158.054700       0.997424
    12172.854500       0.997822
    12187.690400       0.998185
    12202.562500       0.998515
    12217.471000       0.998811
    12232.415900       0.999073
    12247.397400       0.999303
    12262.415700       0.999499
    12277.470800       0.999663
    12292.563000       0.999794
    12307.692300       0.999893
    12322.858900       0.999961
    12338.062900       0.999996
    12353.304500       1.000000
    12368.583800       0.999973
    12383.900900       0.999915
    12399.256000       0.999826
    12414.649300       0.999707
    12430.080800       0.999558
    12445.550700       0.999380
    12461.059200       0.999171
    12476.606400       0.998934
    12492.192400       0.998668
    12507.817400       0.998373
    12523.481500       0.998051
    12539.185000       0.997700
    12554.927800       0.997322
    12570.710200       0.996917
    12586.532400       0.996485
    12602.394500       0.996026
    12618.296500       0.995541
    12634.238800       0.995030
    12650.221400       0.994494
    12666.244500       0.993933
    12682.308200       0.993347
    12698.412700       0.992737
    12714.558200       0.992103
    12730.744700       0.991445
    12746.972600       0.990764
    12763.241900       0.990060
    12779.552700       0.989334
    12795.905300       0.988585
    12812.299800       0.987815
    12828.736400       0.987024
    12845.215200       0.986211
    12861.736300       0.985379
    12878.300100       0.984526
    12894.906500       0.983653
    12911.555800       0.982762
    12928.248200       0.981851
    12944.983800       0.980922
    12961.762800       0.979975
    12978.585300       0.979010
    12995.451600       0.978028
    13012.361700       0.977030
    13029.316000       0.976015
    13046.314400       0.974984
    13063.357300       0.973938
    13080.444700       0.972877
    13097.576900       0.971801
    13114.754100       0.970712
    13131.976400       0.969608
    13149.243900       0.968491
    13166.556900       0.967362
    13183.915600       0.966220
    13201.320100       0.965066
    13218.770700       0.963900
    13236.267400       0.962724
    13253.810500       0.961537
    13271.400100       0.960340
    13289.036500       0.959133
    13306.719900       0.957917
    13324.450400       0.956693
    13342.228200       0.955459
    13360.053400       0.954218
    13377.926400       0.952970
    13395.847300       0.951715
    13413.816200       0.950453
    13431.833400       0.949185
    13449.899100       0.947911
    13468.013500       0.946633
    13486.176700       0.945349
    13504.388900       0.944061
    13522.650400       0.942770
    13540.961400       0.941475
    13559.322000       0.940177
    13577.732500       0.938877
    13596.193100       0.937575
    13614.703900       0.936271
    13633.265200       0.934966
    13651.877100       0.933660
    13670.540000       0.932354
    13689.253900       0.931048
    13708.019200       0.929743
    13726.836000       0.928439
    13745.704500       0.927136
    13764.624900       0.925835
    13783.597500       0.924537
    13802.622500       0.923241
    13821.700100       0.921949
    13840.830400       0.920660
    13860.013900       0.919375
    13879.250500       0.918095
    13898.540700       0.916819
    13917.884500       0.915549
    13937.282200       0.914284
    13956.734100       0.913026
    13976.240400       0.911773
    13995.801300       0.910528
    14015.417000       0.909290
    14035.087700       0.908060
    14054.813800       0.906838
    14074.595400       0.905624
    14094.432700       0.904419
    14114.326000       0.903223
    14134.275600       0.902037
    14154.281700       0.900860
    14174.344400       0.899694
    14194.464200       0.898539
    14214.641100       0.897394
    14234.875400       0.896261
    14255.167500       0.895139
    14275.517500       0.894030
    14295.925700       0.892933
    14316.392300       0.891848
    14336.917600       0.890776
    14357.501800       0.889718
    14378.145200       0.888673
    14398.848100       0.887642
    14419.610700       0.886626
    14440.433200       0.885624
    14461.316000       0.884636
    14482.259200       0.883664
    14503.263200       0.882707
    14524.328200       0.881766
    14545.454500       0.880840
    14566.642400       0.879931
    14587.892000       0.879038
    14609.203800       0.878162
    14630.577900       0.877302
    14652.014700       0.876460
    14673.514300       0.875635
    14695.077100       0.874827
    14716.703500       0.874037
    14738.393500       0.873265
    14760.147600       0.872512
    14781.966000       0.871776
    14803.849000       0.871059
    14825.796900       0.870361
    14847.809900       0.869682
    14869.888500       0.869021
    14892.032800       0.868380
    14914.243100       0.867758
    14936.519800       0.867156
    14958.863100       0.866573
    14981.273400       0.866009
    15003.750900       0.865466
    15026.296000       0.864942
    15048.909000       0.864438
    15071.590100       0.863954
    15094.339600       0.863491
    15117.158000       0.863047
    15140.045400       0.862624
    15163.002300       0.862221
    15186.028900       0.861839
    15209.125500       0.861476
    15232.292500       0.861135
    15255.530100       0.860813
    15278.838800       0.860512
    15302.218800       0.860232
    15325.670500       0.859971
    15349.194200       0.859732
    15372.790200       0.859512
    15396.458800       0.859313
    15420.200500       0.859134
    15444.015400       0.858975
    15467.904100       0.858837
    15491.866800       0.858718
    15515.903800       0.858619
    15540.015500       0.858540
    15564.202300       0.858481
    15588.464500       0.858442
    15612.802500       0.858422
    15637.216600       0.858421
    15661.707100       0.858440
    15686.274500       0.858478
    15710.919100       0.858534
    15735.641200       0.858609
    15760.441300       0.858703
    15785.319700       0.858815
    15810.276700       0.858945
    15835.312700       0.859094
    15860.428200       0.859259
    15885.623500       0.859443
    15910.899000       0.859643
    15936.255000       0.859860
    15961.691900       0.860094
    15987.210200       0.860345
    16012.810200       0.860611
    16038.492400       0.860893
    16064.257000       0.861191
    16090.104600       0.861504
    16116.035500       0.861832
    16142.050000       0.862174
    16168.148700       0.862531
    16194.332000       0.862901
    16220.600200       0.863285
    16246.953700       0.863681
    16273.393000       0.864091
    16299.918500       0.864512
    16326.530600       0.864946
    16353.229800       0.865390
    16380.016400       0.865846
    16406.890900       0.866313
    16433.853700       0.866789
    16460.905300       0.867275
    16488.046200       0.867770
    16515.276600       0.868274
    16542.597200       0.868786
    16570.008300       0.869306
    16597.510400       0.869833
    16625.103900       0.870367
    16652.789300       0.870907
    16680.567100       0.871452
    16708.437800       0.872003
    16736.401700       0.872558
    16764.459300       0.873116
    16792.611300       0.873679
    16820.857900       0.874243
    16849.199700       0.874811
    16877.637100       0.875379
    16906.170800       0.875949
    16934.801000       0.876519
    16963.528400       0.877088
    16992.353400       0.877657
    17021.276600       0.878224
    17050.298400       0.878788
    17079.419300       0.879350
    17108.639900       0.879908
    17137.960600       0.880462
    17167.382000       0.881011
    17196.904600       0.881554
    17226.528900       0.882090
    17256.255400       0.882620
    17286.084700       0.883142
    17316.017300       0.883655
    17346.053800       0.884159
    17376.194600       0.884652
    17406.440400       0.885135
    17436.791600       0.885606
    17467.248900       0.886065
    17497.812800       0.886511
    17528.483800       0.886943
    17559.262500       0.887360
    17590.149500       0.887762
    17621.145400       0.888147
    17652.250700       0.888515
    17683.466000       0.888865
    17714.791900       0.889197
    17746.228900       0.889508
    17777.777800       0.889800
    17809.439000       0.890070
    17841.213200       0.890318
    17873.101000       0.890543
    17905.103000       0.890744
    17937.219700       0.890921
    17969.451900       0.891072
    18001.800200       0.891196
    18034.265100       0.891294
    18066.847300       0.891363
    18099.547500       0.891403
    18132.366300       0.891413
    18165.304300       0.891393
    18198.362100       0.891340
    18231.540600       0.891256
    18264.840200       0.891137
    18298.261700       0.890985
    18331.805700       0.890797
    18365.472900       0.890573
    18399.264000       0.890312
    18433.179700       0.890013
    18467.220700       0.889675
    18501.387600       0.889297
    18535.681200       0.888879
    18570.102100       0.888419
    18604.651200       0.887917
    18639.329000       0.887371
    18674.136300       0.886781
    18709.073900       0.886146
    18744.142500       0.885465
    18779.342700       0.884736
    18814.675400       0.883960
    18850.141400       0.883135
    18885.741300       0.882261
    18921.475900       0.881336
    18957.346000       0.880359
    18993.352300       0.879331
    19029.495700       0.878249
    19065.776900       0.877113
    19102.196800       0.875922
    19138.756000       0.874675
    19175.455400       0.873371
    19212.295900       0.872011
    19249.278200       0.870591
    19286.403100       0.869113
    19323.671500       0.867574
    19361.084200       0.865975
    19398.642100       0.864314
    19436.346000       0.862590
    19474.196700       0.860803
    19512.195100       0.858952
    19550.342100       0.857037
    19588.638600       0.855055
    19627.085400       0.853007
    19665.683400       0.850892
    19704.433500       0.848709
    19743.336600       0.846457
    19782.393700       0.844136
    19821.605600       0.841745
    19860.973200       0.839283
    19900.497500       0.836750
    19940.179500       0.834144
    19980.020000       0.831466
    20020.020000       0.828714
    20060.180500       0.825888
    20100.502500       0.822988
    20140.986900       0.820012
    20181.634700       0.816960
    20222.446900       0.813832
    20263.424500       0.810627
    20304.568500       0.807344
    20345.880000       0.803983
    20387.359800       0.800544
    20429.009200       0.797026
    20470.829100       0.793428
    20512.820500       0.789751
    20554.984600       0.785993
    20597.322300       0.782154
    20639.834900       0.778235
    20682.523300       0.774234
    20725.388600       0.770151
    20768.432000       0.765986
    20811.654500       0.761739
    20855.057400       0.757410
    20898.641600       0.752998
    20942.408400       0.748502
    20986.358900       0.743924
    21030.494200       0.739262
    21074.815600       0.734517
    21119.324200       0.729689
    21164.021200       0.724777
    21208.907700       0.719781
    21253.985100       0.714702
    21299.254500       0.709539
    21344.717200       0.704293
    21390.374300       0.698963
    21436.227200       0.693551
    21482.277100       0.688055
    21528.525300       0.682476
    21574.973000       0.676815
    21621.621600       0.671071
    21668.472400       0.665245
    21715.526600       0.659338
    21762.785600       0.653349
    21810.250800       0.647280
    21857.923500       0.641130
    21905.805000       0.634899
    21953.896800       0.628590
    22002.200200       0.622202
    22050.716600       0.615736
    22099.447500       0.609192
    22148.394200       0.602571
    22197.558300       0.595874
    22246.941000       0.589102
    22296.544000       0.582256
    22346.368700       0.575336
    22396.416600       0.568344
    22446.689100       0.561280
    22497.187900       0.554145
    22547.914300       0.546942
    22598.870100       0.539669
    22650.056600       0.532330
    22701.475600       0.524925
    22753.128600       0.517456
    22805.017100       0.509923
    22857.142900       0.502329
    22909.507400       0.494675
    22962.112500       0.486961
    23014.959700       0.479191
    23068.050700       0.471365
    23121.387300       0.463485
    23174.971000       0.455553
    23228.803700       0.447571
    23282.887100       0.439541
    23337.222900       0.431465
    23391.812900       0.423344
    23446.658900       0.415180
    23501.762600       0.406977
    23557.126000       0.398736
    23612.750900       0.390459
    23668.639100       0.382149
    23724.792400       0.373808
    23781.212800       0.365440
    23837.902300       0.357045
    23894.862600       0.348627
    23952.095800       0.340188
    24009.603800       0.331733
    24067.388700       0.323262
    24125.452400       0.314780
    24183.796900       0.306289
    24242.424200       0.297792
    24301.336600       0.289293
    24360.535900       0.280795
    24420.024400       0.272301
    24479.804200       0.263814
    24539.877300       0.255339
    24600.246000       0.246878
    24660.912500       0.238436
    24721.878900       0.230016
    24783.147500       0.221622
    24844.720500       0.213258
    24906.600200       0.204929
    24968.789000       0.196637
    25031.289100       0.188388
    25094.102900       0.180186
    25157.232700       0.172036
    25220.681000       0.163940
    25284.450100       0.155906
    25348.542500       0.147936
    25412.960600       0.140037
    25477.707000       0.132212
