37,   37, MVIRI VIS channel from srf_MET7_2002078_2002079_1801-Release_S10EE_10.dat
Number of data points:
793
Wavenumber (cm-1)   Filter response
     8442.380800       0.000000
     8449.514200       0.000000
     8456.659600       0.000004
     8463.817200       0.000054
     8470.986900       0.000159
     8478.168700       0.000317
     8485.362700       0.000528
     8492.569000       0.000789
     8499.787500       0.001100
     8507.018300       0.001458
     8514.261400       0.001863
     8521.516800       0.002313
     8528.784600       0.002806
     8536.064900       0.003342
     8543.357500       0.003920
     8550.662700       0.004538
     8557.980300       0.005195
     8565.310500       0.005890
     8572.653200       0.006622
     8580.008600       0.007391
     8587.376600       0.008194
     8594.757200       0.009032
     8602.150500       0.009904
     8609.556600       0.010808
     8616.975400       0.011744
     8624.407100       0.012711
     8631.851500       0.013709
     8639.308900       0.014736
     8646.779100       0.015792
     8654.262200       0.016877
     8661.758300       0.017989
     8669.267400       0.019129
     8676.789600       0.020296
     8684.324800       0.021488
     8691.873100       0.022707
     8699.434500       0.023951
     8707.009100       0.025219
     8714.596900       0.026512
     8722.198000       0.027830
     8729.812300       0.029170
     8737.439900       0.030535
     8745.080900       0.031922
     8752.735200       0.033332
     8760.403000       0.034764
     8768.084200       0.036219
     8775.778900       0.037695
     8783.487000       0.039194
     8791.208800       0.040714
     8798.944100       0.042255
     8806.693100       0.043817
     8814.455700       0.045401
     8822.232000       0.047005
     8830.022100       0.048630
     8837.825900       0.050276
     8845.643500       0.051942
     8853.475000       0.053629
     8861.320300       0.055336
     8869.179600       0.057063
     8877.052800       0.058811
     8884.940000       0.060579
     8892.841300       0.062367
     8900.756600       0.064176
     8908.686000       0.066004
     8916.629500       0.067853
     8924.587200       0.069722
     8932.559200       0.071611
     8940.545400       0.073520
     8948.545900       0.075450
     8956.560700       0.077400
     8964.589900       0.079370
     8972.633500       0.081361
     8980.691500       0.083372
     8988.764000       0.085404
     8996.851100       0.087456
     9004.952700       0.089529
     9013.068900       0.091622
     9021.199800       0.093736
     9029.345400       0.095872
     9037.505600       0.098028
     9045.680700       0.100205
     9053.870500       0.102403
     9062.075200       0.104622
     9070.294800       0.106863
     9078.529300       0.109125
     9086.778700       0.111409
     9095.043200       0.113714
     9103.322700       0.116041
     9111.617300       0.118390
     9119.927000       0.120760
     9128.251900       0.123153
     9136.592100       0.125567
     9144.947400       0.128004
     9153.318100       0.130462
     9161.704100       0.132943
     9170.105500       0.135447
     9178.522300       0.137973
     9186.954500       0.140522
     9195.402300       0.143093
     9203.865600       0.145687
     9212.344500       0.148304
     9220.839100       0.150943
     9229.349300       0.153606
     9237.875300       0.156292
     9246.417000       0.159000
     9254.974500       0.161732
     9263.547900       0.164487
     9272.137200       0.167266
     9280.742500       0.170067
     9289.363700       0.172892
     9298.000900       0.175741
     9306.654300       0.178613
     9315.323700       0.181508
     9324.009300       0.184427
     9332.711200       0.187369
     9341.429200       0.190335
     9350.163600       0.193324
     9358.914400       0.196337
     9367.681500       0.199374
     9376.465100       0.202434
     9385.265100       0.205517
     9394.081700       0.208625
     9402.914900       0.211755
     9411.764700       0.214909
     9420.631200       0.218087
     9429.514400       0.221288
     9438.414300       0.224513
     9447.331100       0.227760
     9456.264800       0.231031
     9465.215300       0.234326
     9474.182900       0.237643
     9483.167400       0.240984
     9492.169000       0.244347
     9501.187600       0.247734
     9510.223500       0.251143
     9519.276500       0.254575
     9528.346800       0.258030
     9537.434400       0.261507
     9546.539400       0.265007
     9555.661700       0.268529
     9564.801500       0.272073
     9573.958800       0.275639
     9583.133700       0.279227
     9592.326100       0.282837
     9601.536200       0.286469
     9610.764100       0.290121
     9620.009600       0.293795
     9629.273000       0.297491
     9638.554200       0.301207
     9647.853400       0.304944
     9657.170400       0.308701
     9666.505600       0.312479
     9675.858700       0.316277
     9685.230000       0.320095
     9694.619500       0.323932
     9704.027200       0.327789
     9713.453100       0.331666
     9722.897400       0.335562
     9732.360100       0.339476
     9741.841200       0.343409
     9751.340800       0.347360
     9760.859000       0.351329
     9770.395700       0.355316
     9779.951100       0.359320
     9789.525200       0.363342
     9799.118100       0.367381
     9808.729800       0.371437
     9818.360300       0.375509
     9828.009800       0.379596
     9837.678300       0.383700
     9847.365800       0.387820
     9857.072400       0.391954
     9866.798200       0.396104
     9876.543200       0.400267
     9886.307500       0.404446
     9896.091000       0.408638
     9905.894000       0.412843
     9915.716400       0.417062
     9925.558300       0.421294
     9935.419800       0.425538
     9945.300800       0.429795
     9955.201600       0.434063
     9965.122100       0.438342
     9975.062300       0.442633
     9985.022500       0.446934
     9995.002500       0.451246
    10005.002500       0.455568
    10015.022500       0.459899
    10025.062700       0.464239
    10035.122900       0.468588
    10045.203400       0.472946
    10055.304200       0.477312
    10065.425300       0.481685
    10075.566800       0.486065
    10085.728700       0.490452
    10095.911200       0.494846
    10106.114200       0.499245
    10116.337900       0.503650
    10126.582300       0.508060
    10136.847400       0.512474
    10147.133400       0.516893
    10157.440300       0.521316
    10167.768200       0.525742
    10178.117000       0.530171
    10188.487000       0.534602
    10198.878100       0.539036
    10209.290500       0.543471
    10219.724100       0.547907
    10230.179000       0.552344
    10240.655400       0.556782
    10251.153300       0.561219
    10261.672700       0.565655
    10272.213700       0.570091
    10282.776300       0.574525
    10293.360800       0.578957
    10303.967000       0.583387
    10314.595200       0.587813
    10325.245200       0.592237
    10335.917300       0.596656
    10346.611500       0.601072
    10357.327800       0.605482
    10368.066400       0.609888
    10378.827200       0.614287
    10389.610400       0.618681
    10400.416000       0.623068
    10411.244100       0.627448
    10422.094800       0.631821
    10432.968200       0.636185
    10443.864200       0.640542
    10454.783100       0.644889
    10465.724800       0.649227
    10476.689400       0.653556
    10487.677000       0.657874
    10498.687700       0.662181
    10509.721500       0.666477
    10520.778500       0.670762
    10531.858900       0.675034
    10542.962600       0.679294
    10554.089700       0.683541
    10565.240400       0.687775
    10576.414600       0.691995
    10587.612500       0.696200
    10598.834100       0.700391
    10610.079600       0.704566
    10621.348900       0.708726
    10632.642200       0.712869
    10643.959600       0.716997
    10655.301000       0.721107
    10666.666700       0.725199
    10678.056600       0.729274
    10689.470900       0.733331
    10700.909600       0.737369
    10712.372800       0.741387
    10723.860600       0.745387
    10735.373100       0.749366
    10746.910300       0.753325
    10758.472300       0.757263
    10770.059200       0.761180
    10781.671200       0.765075
    10793.308100       0.768948
    10804.970300       0.772799
    10816.657700       0.776627
    10828.370300       0.780432
    10840.108400       0.784213
    10851.871900       0.787970
    10863.661100       0.791703
    10875.475800       0.795412
    10887.316300       0.799095
    10899.182600       0.802752
    10911.074700       0.806384
    10922.992900       0.809990
    10934.937100       0.813568
    10946.907500       0.817120
    10958.904100       0.820645
    10970.927000       0.824142
    10982.976400       0.827612
    10995.052200       0.831052
    11007.154700       0.834465
    11019.283700       0.837848
    11031.439600       0.841202
    11043.622300       0.844527
    11055.832000       0.847821
    11068.068600       0.851086
    11080.332400       0.854320
    11092.623400       0.857523
    11104.941700       0.860695
    11117.287400       0.863836
    11129.660500       0.866945
    11142.061300       0.870022
    11154.489700       0.873067
    11166.945800       0.876079
    11179.429800       0.879059
    11191.941800       0.882006
    11204.481800       0.884919
    11217.049900       0.887799
    11229.646300       0.890646
    11242.270900       0.893458
    11254.924000       0.896237
    11267.605600       0.898981
    11280.315800       0.901690
    11293.054800       0.904365
    11305.822500       0.907005
    11318.619100       0.909609
    11331.444800       0.912178
    11344.299500       0.914712
    11357.183400       0.917210
    11370.096600       0.919672
    11383.039300       0.922098
    11396.011400       0.924488
    11409.013100       0.926841
    11422.044500       0.929158
    11435.105800       0.931439
    11448.196900       0.933682
    11461.318100       0.935889
    11474.469300       0.938059
    11487.650800       0.940191
    11500.862600       0.942287
    11514.104800       0.944345
    11527.377500       0.946366
    11540.680900       0.948349
    11554.015000       0.950294
    11567.380000       0.952202
    11580.775900       0.954072
    11594.202900       0.955905
    11607.661100       0.957699
    11621.150500       0.959456
    11634.671300       0.961175
    11648.223600       0.962856
    11661.807600       0.964499
    11675.423200       0.966104
    11689.070700       0.967671
    11702.750100       0.969200
    11716.461600       0.970691
    11730.205300       0.972144
    11743.981200       0.973559
    11757.789500       0.974936
    11771.630400       0.976275
    11785.503800       0.977576
    11799.410000       0.978840
    11813.349100       0.980065
    11827.321100       0.981253
    11841.326200       0.982403
    11855.364600       0.983515
    11869.436200       0.984590
    11883.541300       0.985628
    11897.680000       0.986628
    11911.852300       0.987590
    11926.058400       0.988516
    11940.298500       0.989404
    11954.572600       0.990256
    11968.880900       0.991071
    11983.223500       0.991848
    11997.600500       0.992590
    12012.012000       0.993294
    12026.458200       0.993963
    12040.939200       0.994595
    12055.455100       0.995192
    12070.006000       0.995752
    12084.592100       0.996277
    12099.213600       0.996766
    12113.870400       0.997220
    12128.562800       0.997639
    12143.290800       0.998023
    12158.054700       0.998372
    12172.854500       0.998686
    12187.690400       0.998967
    12202.562500       0.999213
    12217.471000       0.999425
    12232.415900       0.999604
    12247.397400       0.999749
    12262.415700       0.999861
    12277.470800       0.999940
    12292.563000       0.999986
    12307.692300       1.000000
    12322.858900       0.999982
    12338.062900       0.999932
    12353.304500       0.999850
    12368.583800       0.999737
    12383.900900       0.999593
    12399.256000       0.999418
    12414.649300       0.999212
    12430.080800       0.998977
    12445.550700       0.998711
    12461.059200       0.998416
    12476.606400       0.998092
    12492.192400       0.997738
    12507.817400       0.997356
    12523.481500       0.996946
    12539.185000       0.996508
    12554.927800       0.996042
    12570.710200       0.995549
    12586.532400       0.995029
    12602.394500       0.994483
    12618.296500       0.993910
    12634.238800       0.993311
    12650.221400       0.992687
    12666.244500       0.992038
    12682.308200       0.991364
    12698.412700       0.990665
    12714.558200       0.989943
    12730.744700       0.989196
    12746.972600       0.988427
    12763.241900       0.987635
    12779.552700       0.986820
    12795.905300       0.985983
    12812.299800       0.985124
    12828.736400       0.984244
    12845.215200       0.983344
    12861.736300       0.982422
    12878.300100       0.981481
    12894.906500       0.980520
    12911.555800       0.979540
    12928.248200       0.978541
    12944.983800       0.977524
    12961.762800       0.976488
    12978.585300       0.975436
    12995.451600       0.974366
    13012.361700       0.973279
    13029.316000       0.972176
    13046.314400       0.971057
    13063.357300       0.969923
    13080.444700       0.968774
    13097.576900       0.967610
    13114.754100       0.966432
    13131.976400       0.965241
    13149.243900       0.964036
    13166.556900       0.962819
    13183.915600       0.961589
    13201.320100       0.960348
    13218.770700       0.959095
    13236.267400       0.957831
    13253.810500       0.956557
    13271.400100       0.955273
    13289.036500       0.953979
    13306.719900       0.952676
    13324.450400       0.951364
    13342.228200       0.950044
    13360.053400       0.948716
    13377.926400       0.947381
    13395.847300       0.946039
    13413.816200       0.944690
    13431.833400       0.943336
    13449.899100       0.941975
    13468.013500       0.940610
    13486.176700       0.939241
    13504.388900       0.937866
    13522.650400       0.936489
    13540.961400       0.935108
    13559.322000       0.933724
    13577.732500       0.932338
    13596.193100       0.930949
    13614.703900       0.929559
    13633.265200       0.928169
    13651.877100       0.926777
    13670.540000       0.925385
    13689.253900       0.923994
    13708.019200       0.922603
    13726.836000       0.921213
    13745.704500       0.919825
    13764.624900       0.918439
    13783.597500       0.917055
    13802.622500       0.915674
    13821.700100       0.914296
    13840.830400       0.912922
    13860.013900       0.911551
    13879.250500       0.910186
    13898.540700       0.908825
    13917.884500       0.907469
    13937.282200       0.906119
    13956.734100       0.904775
    13976.240400       0.903438
    13995.801300       0.902107
    14015.417000       0.900784
    14035.087700       0.899468
    14054.813800       0.898161
    14074.595400       0.896861
    14094.432700       0.895571
    14114.326000       0.894290
    14134.275600       0.893018
    14154.281700       0.891755
    14174.344400       0.890504
    14194.464200       0.889262
    14214.641100       0.888032
    14234.875400       0.886812
    14255.167500       0.885605
    14275.517500       0.884409
    14295.925700       0.883226
    14316.392300       0.882054
    14336.917600       0.880896
    14357.501800       0.879751
    14378.145200       0.878620
    14398.848100       0.877502
    14419.610700       0.876398
    14440.433200       0.875309
    14461.316000       0.874234
    14482.259200       0.873174
    14503.263200       0.872129
    14524.328200       0.871100
    14545.454500       0.870086
    14566.642400       0.869088
    14587.892000       0.868107
    14609.203800       0.867142
    14630.577900       0.866193
    14652.014700       0.865261
    14673.514300       0.864347
    14695.077100       0.863449
    14716.703500       0.862569
    14738.393500       0.861707
    14760.147600       0.860863
    14781.966000       0.860036
    14803.849000       0.859228
    14825.796900       0.858438
    14847.809900       0.857667
    14869.888500       0.856914
    14892.032800       0.856180
    14914.243100       0.855465
    14936.519800       0.854769
    14958.863100       0.854092
    14981.273400       0.853435
    15003.750900       0.852797
    15026.296000       0.852178
    15048.909000       0.851579
    15071.590100       0.851000
    15094.339600       0.850440
    15117.158000       0.849900
    15140.045400       0.849380
    15163.002300       0.848880
    15186.028900       0.848399
    15209.125500       0.847939
    15232.292500       0.847498
    15255.530100       0.847078
    15278.838800       0.846677
    15302.218800       0.846296
    15325.670500       0.845935
    15349.194200       0.845594
    15372.790200       0.845273
    15396.458800       0.844971
    15420.200500       0.844690
    15444.015400       0.844428
    15467.904100       0.844185
    15491.866800       0.843962
    15515.903800       0.843758
    15540.015500       0.843574
    15564.202300       0.843409
    15588.464500       0.843263
    15612.802500       0.843136
    15637.216600       0.843027
    15661.707100       0.842937
    15686.274500       0.842866
    15710.919100       0.842813
    15735.641200       0.842778
    15760.441300       0.842761
    15785.319700       0.842762
    15810.276700       0.842780
    15835.312700       0.842815
    15860.428200       0.842868
    15885.623500       0.842937
    15910.899000       0.843023
    15936.255000       0.843126
    15961.691900       0.843244
    15987.210200       0.843378
    16012.810200       0.843527
    16038.492400       0.843692
    16064.257000       0.843871
    16090.104600       0.844065
    16116.035500       0.844274
    16142.050000       0.844496
    16168.148700       0.844731
    16194.332000       0.844980
    16220.600200       0.845242
    16246.953700       0.845516
    16273.393000       0.845802
    16299.918500       0.846099
    16326.530600       0.846408
    16353.229800       0.846728
    16380.016400       0.847058
    16406.890900       0.847398
    16433.853700       0.847747
    16460.905300       0.848106
    16488.046200       0.848473
    16515.276600       0.848848
    16542.597200       0.849231
    16570.008300       0.849621
    16597.510400       0.850017
    16625.103900       0.850420
    16652.789300       0.850828
    16680.567100       0.851241
    16708.437800       0.851659
    16736.401700       0.852081
    16764.459300       0.852506
    16792.611300       0.852934
    16820.857900       0.853364
    16849.199700       0.853796
    16877.637100       0.854229
    16906.170800       0.854662
    16934.801000       0.855095
    16963.528400       0.855528
    16992.353400       0.855959
    17021.276600       0.856388
    17050.298400       0.856815
    17079.419300       0.857238
    17108.639900       0.857657
    17137.960600       0.858072
    17167.382000       0.858481
    17196.904600       0.858885
    17226.528900       0.859281
    17256.255400       0.859671
    17286.084700       0.860052
    17316.017300       0.860424
    17346.053800       0.860787
    17376.194600       0.861140
    17406.440400       0.861481
    17436.791600       0.861811
    17467.248900       0.862129
    17497.812800       0.862433
    17528.483800       0.862723
    17559.262500       0.862999
    17590.149500       0.863259
    17621.145400       0.863503
    17652.250700       0.863730
    17683.466000       0.863939
    17714.791900       0.864129
    17746.228900       0.864300
    17777.777800       0.864451
    17809.439000       0.864580
    17841.213200       0.864688
    17873.101000       0.864773
    17905.103000       0.864835
    17937.219700       0.864872
    17969.451900       0.864884
    18001.800200       0.864870
    18034.265100       0.864830
    18066.847300       0.864762
    18099.547500       0.864665
    18132.366300       0.864539
    18165.304300       0.864383
    18198.362100       0.864196
    18231.540600       0.863976
    18264.840200       0.863725
    18298.261700       0.863439
    18331.805700       0.863120
    18365.472900       0.862765
    18399.264000       0.862374
    18433.179700       0.861946
    18467.220700       0.861480
    18501.387600       0.860975
    18535.681200       0.860431
    18570.102100       0.859846
    18604.651200       0.859220
    18639.329000       0.858552
    18674.136300       0.857842
    18709.073900       0.857087
    18744.142500       0.856288
    18779.342700       0.855443
    18814.675400       0.854551
    18850.141400       0.853613
    18885.741300       0.852626
    18921.475900       0.851591
    18957.346000       0.850506
    18993.352300       0.849371
    19029.495700       0.848184
    19065.776900       0.846945
    19102.196800       0.845653
    19138.756000       0.844307
    19175.455400       0.842906
    19212.295900       0.841451
    19249.278200       0.839939
    19286.403100       0.838370
    19323.671500       0.836743
    19361.084200       0.835058
    19398.642100       0.833314
    19436.346000       0.831509
    19474.196700       0.829644
    19512.195100       0.827718
    19550.342100       0.825729
    19588.638600       0.823677
    19627.085400       0.821562
    19665.683400       0.819382
    19704.433500       0.817137
    19743.336600       0.814827
    19782.393700       0.812450
    19821.605600       0.810007
    19860.973200       0.807496
    19900.497500       0.804916
    19940.179500       0.802268
    19980.020000       0.799550
    20020.020000       0.796762
    20060.180500       0.793904
    20100.502500       0.790974
    20140.986900       0.787973
    20181.634700       0.784900
    20222.446900       0.781754
    20263.424500       0.778535
    20304.568500       0.775242
    20345.880000       0.771875
    20387.359800       0.768434
    20429.009200       0.764918
    20470.829100       0.761326
    20512.820500       0.757659
    20554.984600       0.753916
    20597.322300       0.750096
    20639.834900       0.746200
    20682.523300       0.742227
    20725.388600       0.738176
    20768.432000       0.734048
    20811.654500       0.729843
    20855.057400       0.725559
    20898.641600       0.721198
    20942.408400       0.716758
    20986.358900       0.712241
    21030.494200       0.707644
    21074.815600       0.702970
    21119.324200       0.698217
    21164.021200       0.693385
    21208.907700       0.688476
    21253.985100       0.683487
    21299.254500       0.678421
    21344.717200       0.673276
    21390.374300       0.668053
    21436.227200       0.662753
    21482.277100       0.657374
    21528.525300       0.651919
    21574.973000       0.646386
    21621.621600       0.640776
    21668.472400       0.635090
    21715.526600       0.629328
    21762.785600       0.623490
    21810.250800       0.617577
    21857.923500       0.611589
    21905.805000       0.605527
    21953.896800       0.599392
    22002.200200       0.593183
    22050.716600       0.586902
    22099.447500       0.580549
    22148.394200       0.574126
    22197.558300       0.567632
    22246.941000       0.561069
    22296.544000       0.554437
    22346.368700       0.547738
    22396.416600       0.540972
    22446.689100       0.534141
    22497.187900       0.527245
    22547.914300       0.520285
    22598.870100       0.513263
    22650.056600       0.506180
    22701.475600       0.499037
    22753.128600       0.491835
    22805.017100       0.484576
    22857.142900       0.477262
    22909.507400       0.469892
    22962.112500       0.462470
    23014.959700       0.454996
    23068.050700       0.447472
    23121.387300       0.439901
    23174.971000       0.432282
    23228.803700       0.424619
    23282.887100       0.416914
    23337.222900       0.409167
    23391.812900       0.401381
    23446.658900       0.393558
    23501.762600       0.385701
    23557.126000       0.377810
    23612.750900       0.369889
    23668.639100       0.361940
    23724.792400       0.353965
    23781.212800       0.345966
    23837.902300       0.337946
    23894.862600       0.329908
    23952.095800       0.321853
    24009.603800       0.313785
    24067.388700       0.305707
    24125.452400       0.297621
    24183.796900       0.289530
    24242.424200       0.281436
    24301.336600       0.273344
    24360.535900       0.265256
    24420.024400       0.257176
    24479.804200       0.249106
    24539.877300       0.241050
    24600.246000       0.233011
    24660.912500       0.224994
    24721.878900       0.217000
    24783.147500       0.209035
    24844.720500       0.201101
    24906.600200       0.193203
    24968.789000       0.185344
    25031.289100       0.177529
    25094.102900       0.169762
    25157.232700       0.162046
    25220.681000       0.154386
    25284.450100       0.146786
    25348.542500       0.139251
    25412.960600       0.131786
    25477.707000       0.124394
