12,   12, MVIRI VIS channel from srf_MET7_1999033_1999034_1801-Release_S10EE_10.dat
Number of data points:
793
Wavenumber (cm-1)   Filter response
     8442.380800       0.000000
     8449.514200       0.000000
     8456.659600       0.000004
     8463.817200       0.000052
     8470.986900       0.000154
     8478.168700       0.000308
     8485.362700       0.000512
     8492.569000       0.000766
     8499.787500       0.001067
     8507.018300       0.001415
     8514.261400       0.001807
     8521.516800       0.002244
     8528.784600       0.002723
     8536.064900       0.003243
     8543.357500       0.003804
     8550.662700       0.004404
     8557.980300       0.005042
     8565.310500       0.005717
     8572.653200       0.006428
     8580.008600       0.007174
     8587.376600       0.007955
     8594.757200       0.008769
     8602.150500       0.009615
     8609.556600       0.010493
     8616.975400       0.011403
     8624.407100       0.012342
     8631.851500       0.013312
     8639.308900       0.014310
     8646.779100       0.015337
     8654.262200       0.016391
     8661.758300       0.017473
     8669.267400       0.018581
     8676.789600       0.019715
     8684.324800       0.020875
     8691.873100       0.022060
     8699.434500       0.023269
     8707.009100       0.024503
     8714.596900       0.025761
     8722.198000       0.027042
     8729.812300       0.028347
     8737.439900       0.029674
     8745.080900       0.031024
     8752.735200       0.032396
     8760.403000       0.033791
     8768.084200       0.035207
     8775.778900       0.036644
     8783.487000       0.038103
     8791.208800       0.039582
     8798.944100       0.041083
     8806.693100       0.042605
     8814.455700       0.044147
     8822.232000       0.045710
     8830.022100       0.047292
     8837.825900       0.048896
     8845.643500       0.050519
     8853.475000       0.052163
     8861.320300       0.053826
     8869.179600       0.055510
     8877.052800       0.057214
     8884.940000       0.058937
     8892.841300       0.060680
     8900.756600       0.062443
     8908.686000       0.064226
     8916.629500       0.066029
     8924.587200       0.067852
     8932.559200       0.069695
     8940.545400       0.071557
     8948.545900       0.073440
     8956.560700       0.075342
     8964.589900       0.077265
     8972.633500       0.079207
     8980.691500       0.081170
     8988.764000       0.083153
     8996.851100       0.085156
     9004.952700       0.087180
     9013.068900       0.089224
     9021.199800       0.091289
     9029.345400       0.093374
     9037.505600       0.095479
     9045.680700       0.097606
     9053.870500       0.099753
     9062.075200       0.101922
     9070.294800       0.104111
     9078.529300       0.106322
     9086.778700       0.108553
     9095.043200       0.110807
     9103.322700       0.113081
     9111.617300       0.115377
     9119.927000       0.117694
     9128.251900       0.120034
     9136.592100       0.122395
     9144.947400       0.124778
     9153.318100       0.127183
     9161.704100       0.129610
     9170.105500       0.132059
     9178.522300       0.134530
     9186.954500       0.137024
     9195.402300       0.139540
     9203.865600       0.142079
     9212.344500       0.144640
     9220.839100       0.147225
     9229.349300       0.149831
     9237.875300       0.152461
     9246.417000       0.155113
     9254.974500       0.157789
     9263.547900       0.160487
     9272.137200       0.163209
     9280.742500       0.165953
     9289.363700       0.168721
     9298.000900       0.171512
     9306.654300       0.174327
     9315.323700       0.177164
     9324.009300       0.180025
     9332.711200       0.182910
     9341.429200       0.185817
     9350.163600       0.188748
     9358.914400       0.191703
     9367.681500       0.194681
     9376.465100       0.197682
     9385.265100       0.200707
     9394.081700       0.203755
     9402.914900       0.206827
     9411.764700       0.209922
     9420.631200       0.213041
     9429.514400       0.216182
     9438.414300       0.219348
     9447.331100       0.222536
     9456.264800       0.225748
     9465.215300       0.228983
     9474.182900       0.232240
     9483.167400       0.235521
     9492.169000       0.238825
     9501.187600       0.242152
     9510.223500       0.245502
     9519.276500       0.248874
     9528.346800       0.252270
     9537.434400       0.255687
     9546.539400       0.259127
     9555.661700       0.262590
     9564.801500       0.266074
     9573.958800       0.269581
     9583.133700       0.273110
     9592.326100       0.276660
     9601.536200       0.280233
     9610.764100       0.283826
     9620.009600       0.287441
     9629.273000       0.291078
     9638.554200       0.294735
     9647.853400       0.298413
     9657.170400       0.302112
     9666.505600       0.305832
     9675.858700       0.309572
     9685.230000       0.313331
     9694.619500       0.317111
     9704.027200       0.320911
     9713.453100       0.324730
     9722.897400       0.328568
     9732.360100       0.332425
     9741.841200       0.336302
     9751.340800       0.340196
     9760.859000       0.344109
     9770.395700       0.348041
     9779.951100       0.351989
     9789.525200       0.355956
     9799.118100       0.359940
     9808.729800       0.363941
     9818.360300       0.367958
     9828.009800       0.371992
     9837.678300       0.376043
     9847.365800       0.380109
     9857.072400       0.384190
     9866.798200       0.388287
     9876.543200       0.392399
     9886.307500       0.396526
     9896.091000       0.400667
     9905.894000       0.404821
     9915.716400       0.408990
     9925.558300       0.413172
     9935.419800       0.417367
     9945.300800       0.421574
     9955.201600       0.425794
     9965.122100       0.430026
     9975.062300       0.434269
     9985.022500       0.438524
     9995.002500       0.442790
    10005.002500       0.447066
    10015.022500       0.451352
    10025.062700       0.455648
    10035.122900       0.459953
    10045.203400       0.464267
    10055.304200       0.468590
    10065.425300       0.472922
    10075.566800       0.477261
    10085.728700       0.481607
    10095.911200       0.485961
    10106.114200       0.490321
    10116.337900       0.494687
    10126.582300       0.499059
    10136.847400       0.503436
    10147.133400       0.507819
    10157.440300       0.512206
    10167.768200       0.516597
    10178.117000       0.520992
    10188.487000       0.525390
    10198.878100       0.529791
    10209.290500       0.534194
    10219.724100       0.538600
    10230.179000       0.543007
    10240.655400       0.547415
    10251.153300       0.551824
    10261.672700       0.556233
    10272.213700       0.560641
    10282.776300       0.565049
    10293.360800       0.569457
    10303.967000       0.573862
    10314.595200       0.578266
    10325.245200       0.582667
    10335.917300       0.587065
    10346.611500       0.591460
    10357.327800       0.595851
    10368.066400       0.600238
    10378.827200       0.604620
    10389.610400       0.608998
    10400.416000       0.613369
    10411.244100       0.617735
    10422.094800       0.622094
    10432.968200       0.626446
    10443.864200       0.630791
    10454.783100       0.635127
    10465.724800       0.639456
    10476.689400       0.643776
    10487.677000       0.648086
    10498.687700       0.652387
    10509.721500       0.656678
    10520.778500       0.660958
    10531.858900       0.665227
    10542.962600       0.669485
    10554.089700       0.673731
    10565.240400       0.677965
    10576.414600       0.682186
    10587.612500       0.686393
    10598.834100       0.690587
    10610.079600       0.694767
    10621.348900       0.698932
    10632.642200       0.703083
    10643.959600       0.707218
    10655.301000       0.711337
    10666.666700       0.715439
    10678.056600       0.719525
    10689.470900       0.723594
    10700.909600       0.727646
    10712.372800       0.731679
    10723.860600       0.735694
    10735.373100       0.739690
    10746.910300       0.743667
    10758.472300       0.747625
    10770.059200       0.751562
    10781.671200       0.755479
    10793.308100       0.759375
    10804.970300       0.763250
    10816.657700       0.767103
    10828.370300       0.770934
    10840.108400       0.774743
    10851.871900       0.778528
    10863.661100       0.782291
    10875.475800       0.786030
    10887.316300       0.789746
    10899.182600       0.793436
    10911.074700       0.797103
    10922.992900       0.800744
    10934.937100       0.804360
    10946.907500       0.807950
    10958.904100       0.811514
    10970.927000       0.815052
    10982.976400       0.818562
    10995.052200       0.822046
    11007.154700       0.825502
    11019.283700       0.828931
    11031.439600       0.832331
    11043.622300       0.835703
    11055.832000       0.839046
    11068.068600       0.842360
    11080.332400       0.845645
    11092.623400       0.848901
    11104.941700       0.852126
    11117.287400       0.855321
    11129.660500       0.858485
    11142.061300       0.861619
    11154.489700       0.864722
    11166.945800       0.867793
    11179.429800       0.870833
    11191.941800       0.873841
    11204.481800       0.876817
    11217.049900       0.879760
    11229.646300       0.882671
    11242.270900       0.885549
    11254.924000       0.888394
    11267.605600       0.891206
    11280.315800       0.893984
    11293.054800       0.896729
    11305.822500       0.899440
    11318.619100       0.902116
    11331.444800       0.904759
    11344.299500       0.907366
    11357.183400       0.909940
    11370.096600       0.912478
    11383.039300       0.914981
    11396.011400       0.917449
    11409.013100       0.919882
    11422.044500       0.922279
    11435.105800       0.924641
    11448.196900       0.926967
    11461.318100       0.929257
    11474.469300       0.931511
    11487.650800       0.933728
    11500.862600       0.935910
    11514.104800       0.938055
    11527.377500       0.940164
    11540.680900       0.942236
    11554.015000       0.944271
    11567.380000       0.946270
    11580.775900       0.948232
    11594.202900       0.950157
    11607.661100       0.952045
    11621.150500       0.953896
    11634.671300       0.955710
    11648.223600       0.957487
    11661.807600       0.959227
    11675.423200       0.960929
    11689.070700       0.962595
    11702.750100       0.964223
    11716.461600       0.965814
    11730.205300       0.967368
    11743.981200       0.968884
    11757.789500       0.970364
    11771.630400       0.971806
    11785.503800       0.973211
    11799.410000       0.974579
    11813.349100       0.975910
    11827.321100       0.977204
    11841.326200       0.978460
    11855.364600       0.979680
    11869.436200       0.980863
    11883.541300       0.982009
    11897.680000       0.983119
    11911.852300       0.984192
    11926.058400       0.985228
    11940.298500       0.986227
    11954.572600       0.987191
    11968.880900       0.988118
    11983.223500       0.989009
    11997.600500       0.989863
    12012.012000       0.990682
    12026.458200       0.991466
    12040.939200       0.992213
    12055.455100       0.992925
    12070.006000       0.993602
    12084.592100       0.994243
    12099.213600       0.994850
    12113.870400       0.995421
    12128.562800       0.995958
    12143.290800       0.996461
    12158.054700       0.996929
    12172.854500       0.997363
    12187.690400       0.997763
    12202.562500       0.998130
    12217.471000       0.998463
    12232.415900       0.998762
    12247.397400       0.999029
    12262.415700       0.999263
    12277.470800       0.999464
    12292.563000       0.999632
    12307.692300       0.999769
    12322.858900       0.999874
    12338.062900       0.999947
    12353.304500       0.999989
    12368.583800       1.000000
    12383.900900       0.999980
    12399.256000       0.999930
    12414.649300       0.999849
    12430.080800       0.999738
    12445.550700       0.999598
    12461.059200       0.999428
    12476.606400       0.999229
    12492.192400       0.999002
    12507.817400       0.998746
    12523.481500       0.998462
    12539.185000       0.998150
    12554.927800       0.997811
    12570.710200       0.997444
    12586.532400       0.997051
    12602.394500       0.996631
    12618.296500       0.996186
    12634.238800       0.995714
    12650.221400       0.995217
    12666.244500       0.994695
    12682.308200       0.994148
    12698.412700       0.993577
    12714.558200       0.992982
    12730.744700       0.992363
    12746.972600       0.991721
    12763.241900       0.991057
    12779.552700       0.990370
    12795.905300       0.989661
    12812.299800       0.988930
    12828.736400       0.988178
    12845.215200       0.987405
    12861.736300       0.986611
    12878.300100       0.985797
    12894.906500       0.984964
    12911.555800       0.984112
    12928.248200       0.983241
    12944.983800       0.982351
    12961.762800       0.981443
    12978.585300       0.980518
    12995.451600       0.979575
    13012.361700       0.978616
    13029.316000       0.977640
    13046.314400       0.976649
    13063.357300       0.975642
    13080.444700       0.974620
    13097.576900       0.973583
    13114.754100       0.972533
    13131.976400       0.971468
    13149.243900       0.970391
    13166.556900       0.969300
    13183.915600       0.968197
    13201.320100       0.967082
    13218.770700       0.965956
    13236.267400       0.964819
    13253.810500       0.963671
    13271.400100       0.962512
    13289.036500       0.961345
    13306.719900       0.960168
    13324.450400       0.958982
    13342.228200       0.957787
    13360.053400       0.956585
    13377.926400       0.955376
    13395.847300       0.954159
    13413.816200       0.952936
    13431.833400       0.951707
    13449.899100       0.950472
    13468.013500       0.949232
    13486.176700       0.947987
    13504.388900       0.946738
    13522.650400       0.945485
    13540.961400       0.944228
    13559.322000       0.942969
    13577.732500       0.941707
    13596.193100       0.940443
    13614.703900       0.939178
    13633.265200       0.937911
    13651.877100       0.936644
    13670.540000       0.935376
    13689.253900       0.934109
    13708.019200       0.932842
    13726.836000       0.931576
    13745.704500       0.930312
    13764.624900       0.929050
    13783.597500       0.927789
    13802.622500       0.926532
    13821.700100       0.925278
    13840.830400       0.924027
    13860.013900       0.922781
    13879.250500       0.921539
    13898.540700       0.920301
    13917.884500       0.919069
    13937.282200       0.917843
    13956.734100       0.916623
    13976.240400       0.915409
    13995.801300       0.914202
    14015.417000       0.913003
    14035.087700       0.911811
    14054.813800       0.910627
    14074.595400       0.909452
    14094.432700       0.908285
    14114.326000       0.907128
    14134.275600       0.905980
    14154.281700       0.904842
    14174.344400       0.903714
    14194.464200       0.902597
    14214.641100       0.901491
    14234.875400       0.900397
    14255.167500       0.899314
    14275.517500       0.898243
    14295.925700       0.897185
    14316.392300       0.896139
    14336.917600       0.895106
    14357.501800       0.894087
    14378.145200       0.893081
    14398.848100       0.892090
    14419.610700       0.891112
    14440.433200       0.890150
    14461.316000       0.889202
    14482.259200       0.888269
    14503.263200       0.887351
    14524.328200       0.886450
    14545.454500       0.885564
    14566.642400       0.884695
    14587.892000       0.883842
    14609.203800       0.883005
    14630.577900       0.882186
    14652.014700       0.881384
    14673.514300       0.880600
    14695.077100       0.879833
    14716.703500       0.879083
    14738.393500       0.878352
    14760.147600       0.877640
    14781.966000       0.876945
    14803.849000       0.876270
    14825.796900       0.875613
    14847.809900       0.874975
    14869.888500       0.874356
    14892.032800       0.873757
    14914.243100       0.873177
    14936.519800       0.872616
    14958.863100       0.872076
    14981.273400       0.871555
    15003.750900       0.871054
    15026.296000       0.870573
    15048.909000       0.870112
    15071.590100       0.869672
    15094.339600       0.869252
    15117.158000       0.868852
    15140.045400       0.868473
    15163.002300       0.868114
    15186.028900       0.867775
    15209.125500       0.867458
    15232.292500       0.867161
    15255.530100       0.866884
    15278.838800       0.866628
    15302.218800       0.866393
    15325.670500       0.866178
    15349.194200       0.865984
    15372.790200       0.865811
    15396.458800       0.865658
    15420.200500       0.865526
    15444.015400       0.865414
    15467.904100       0.865322
    15491.866800       0.865251
    15515.903800       0.865200
    15540.015500       0.865169
    15564.202300       0.865158
    15588.464500       0.865166
    15612.802500       0.865195
    15637.216600       0.865243
    15661.707100       0.865311
    15686.274500       0.865398
    15710.919100       0.865504
    15735.641200       0.865630
    15760.441300       0.865774
    15785.319700       0.865936
    15810.276700       0.866117
    15835.312700       0.866317
    15860.428200       0.866534
    15885.623500       0.866769
    15910.899000       0.867021
    15936.255000       0.867291
    15961.691900       0.867577
    15987.210200       0.867880
    16012.810200       0.868200
    16038.492400       0.868536
    16064.257000       0.868887
    16090.104600       0.869254
    16116.035500       0.869636
    16142.050000       0.870033
    16168.148700       0.870444
    16194.332000       0.870870
    16220.600200       0.871309
    16246.953700       0.871761
    16273.393000       0.872227
    16299.918500       0.872705
    16326.530600       0.873195
    16353.229800       0.873697
    16380.016400       0.874210
    16406.890900       0.874734
    16433.853700       0.875268
    16460.905300       0.875812
    16488.046200       0.876366
    16515.276600       0.876928
    16542.597200       0.877499
    16570.008300       0.878078
    16597.510400       0.878665
    16625.103900       0.879258
    16652.789300       0.879858
    16680.567100       0.880464
    16708.437800       0.881075
    16736.401700       0.881690
    16764.459300       0.882310
    16792.611300       0.882933
    16820.857900       0.883560
    16849.199700       0.884189
    16877.637100       0.884819
    16906.170800       0.885451
    16934.801000       0.886083
    16963.528400       0.886715
    16992.353400       0.887346
    17021.276600       0.887976
    17050.298400       0.888604
    17079.419300       0.889229
    17108.639900       0.889851
    17137.960600       0.890468
    17167.382000       0.891081
    17196.904600       0.891688
    17226.528900       0.892288
    17256.255400       0.892882
    17286.084700       0.893468
    17316.017300       0.894046
    17346.053800       0.894614
    17376.194600       0.895172
    17406.440400       0.895720
    17436.791600       0.896256
    17467.248900       0.896779
    17497.812800       0.897290
    17528.483800       0.897787
    17559.262500       0.898269
    17590.149500       0.898735
    17621.145400       0.899185
    17652.250700       0.899618
    17683.466000       0.900033
    17714.791900       0.900430
    17746.228900       0.900806
    17777.777800       0.901162
    17809.439000       0.901497
    17841.213200       0.901810
    17873.101000       0.902099
    17905.103000       0.902364
    17937.219700       0.902605
    17969.451900       0.902820
    18001.800200       0.903008
    18034.265100       0.903169
    18066.847300       0.903302
    18099.547500       0.903405
    18132.366300       0.903478
    18165.304300       0.903520
    18198.362100       0.903531
    18231.540600       0.903508
    18264.840200       0.903451
    18298.261700       0.903360
    18331.805700       0.903233
    18365.472900       0.903070
    18399.264000       0.902869
    18433.179700       0.902630
    18467.220700       0.902351
    18501.387600       0.902032
    18535.681200       0.901673
    18570.102100       0.901271
    18604.651200       0.900826
    18639.329000       0.900337
    18674.136300       0.899803
    18709.073900       0.899224
    18744.142500       0.898597
    18779.342700       0.897924
    18814.675400       0.897201
    18850.141400       0.896429
    18885.741300       0.895607
    18921.475900       0.894734
    18957.346000       0.893808
    18993.352300       0.892829
    19029.495700       0.891797
    19065.776900       0.890709
    19102.196800       0.889566
    19138.756000       0.888365
    19175.455400       0.887108
    19212.295900       0.885792
    19249.278200       0.884416
    19286.403100       0.882980
    19323.671500       0.881484
    19361.084200       0.879925
    19398.642100       0.878303
    19436.346000       0.876618
    19474.196700       0.874869
    19512.195100       0.873054
    19550.342100       0.871173
    19588.638600       0.869226
    19627.085400       0.867210
    19665.683400       0.865126
    19704.433500       0.862973
    19743.336600       0.860750
    19782.393700       0.858457
    19821.605600       0.856091
    19860.973200       0.853654
    19900.497500       0.851143
    19940.179500       0.848559
    19980.020000       0.845901
    20020.020000       0.843167
    20060.180500       0.840358
    20100.502500       0.837473
    20140.986900       0.834511
    20181.634700       0.831471
    20222.446900       0.828353
    20263.424500       0.825156
    20304.568500       0.821880
    20345.880000       0.818524
    20387.359800       0.815088
    20429.009200       0.811571
    20470.829100       0.807973
    20512.820500       0.804293
    20554.984600       0.800531
    20597.322300       0.796686
    20639.834900       0.792758
    20682.523300       0.788746
    20725.388600       0.784651
    20768.432000       0.780472
    20811.654500       0.776209
    20855.057400       0.771860
    20898.641600       0.767427
    20942.408400       0.762909
    20986.358900       0.758305
    21030.494200       0.753616
    21074.815600       0.748841
    21119.324200       0.743980
    21164.021200       0.739034
    21208.907700       0.734001
    21253.985100       0.728883
    21299.254500       0.723679
    21344.717200       0.718389
    21390.374300       0.713013
    21436.227200       0.707551
    21482.277100       0.702004
    21528.525300       0.696372
    21574.973000       0.690654
    21621.621600       0.684852
    21668.472400       0.678965
    21715.526600       0.672993
    21762.785600       0.666938
    21810.250800       0.660799
    21857.923500       0.654577
    21905.805000       0.648273
    21953.896800       0.641887
    22002.200200       0.635419
    22050.716600       0.628870
    22099.447500       0.622241
    22148.394200       0.615532
    22197.558300       0.608745
    22246.941000       0.601880
    22296.544000       0.594938
    22346.368700       0.587919
    22396.416600       0.580826
    22446.689100       0.573658
    22497.187900       0.566417
    22547.914300       0.559103
    22598.870100       0.551719
    22650.056600       0.544265
    22701.475600       0.536742
    22753.128600       0.529153
    22805.017100       0.521497
    22857.142900       0.513777
    22909.507400       0.505994
    22962.112500       0.498150
    23014.959700       0.490246
    23068.050700       0.482283
    23121.387300       0.474265
    23174.971000       0.466191
    23228.803700       0.458065
    23282.887100       0.449888
    23337.222900       0.441662
    23391.812900       0.433390
    23446.658900       0.425072
    23501.762600       0.416713
    23557.126000       0.408313
    23612.750900       0.399875
    23668.639100       0.391401
    23724.792400       0.382894
    23781.212800       0.374357
    23837.902300       0.365792
    23894.862600       0.357202
    23952.095800       0.348589
    24009.603800       0.339957
    24067.388700       0.331308
    24125.452400       0.322646
    24183.796900       0.313973
    24242.424200       0.305292
    24301.336600       0.296608
    24360.535900       0.287922
    24420.024400       0.279240
    24479.804200       0.270563
    24539.877300       0.261897
    24600.246000       0.253244
    24660.912500       0.244607
    24721.878900       0.235993
    24783.147500       0.227403
    24844.720500       0.218843
    24906.600200       0.210316
    24968.789000       0.201826
    25031.289100       0.193379
    25094.102900       0.184978
    25157.232700       0.176628
    25220.681000       0.168334
    25284.450100       0.160100
    25348.542500       0.151931
    25412.960600       0.143833
    25477.707000       0.135810
