62,   62, MVIRI VIS channel from srf_MET7_2005123_2005124_1801-Release_S10EE_10.dat
Number of data points:
793
Wavenumber (cm-1)   Filter response
     8442.380800       0.000000
     8449.514200       0.000000
     8456.659600       0.000004
     8463.817200       0.000055
     8470.986900       0.000162
     8478.168700       0.000324
     8485.362700       0.000540
     8492.569000       0.000807
     8499.787500       0.001125
     8507.018300       0.001491
     8514.261400       0.001905
     8521.516800       0.002364
     8528.784600       0.002869
     8536.064900       0.003417
     8543.357500       0.004007
     8550.662700       0.004638
     8557.980300       0.005310
     8565.310500       0.006020
     8572.653200       0.006768
     8580.008600       0.007553
     8587.376600       0.008374
     8594.757200       0.009230
     8602.150500       0.010121
     8609.556600       0.011044
     8616.975400       0.012000
     8624.407100       0.012988
     8631.851500       0.014006
     8639.308900       0.015055
     8646.779100       0.016134
     8654.262200       0.017241
     8661.758300       0.018377
     8669.267400       0.019541
     8676.789600       0.020732
     8684.324800       0.021949
     8691.873100       0.023193
     8699.434500       0.024462
     8707.009100       0.025757
     8714.596900       0.027076
     8722.198000       0.028421
     8729.812300       0.029789
     8737.439900       0.031180
     8745.080900       0.032596
     8752.735200       0.034034
     8760.403000       0.035495
     8768.084200       0.036979
     8775.778900       0.038484
     8783.487000       0.040013
     8791.208800       0.041562
     8798.944100       0.043134
     8806.693100       0.044727
     8814.455700       0.046341
     8822.232000       0.047977
     8830.022100       0.049633
     8837.825900       0.051311
     8845.643500       0.053009
     8853.475000       0.054728
     8861.320300       0.056468
     8869.179600       0.058228
     8877.052800       0.060009
     8884.940000       0.061810
     8892.841300       0.063632
     8900.756600       0.065474
     8908.686000       0.067336
     8916.629500       0.069219
     8924.587200       0.071123
     8932.559200       0.073047
     8940.545400       0.074991
     8948.545900       0.076956
     8956.560700       0.078941
     8964.589900       0.080947
     8972.633500       0.082973
     8980.691500       0.085021
     8988.764000       0.087088
     8996.851100       0.089177
     9004.952700       0.091287
     9013.068900       0.093417
     9021.199800       0.095568
     9029.345400       0.097741
     9037.505600       0.099934
     9045.680700       0.102149
     9053.870500       0.104385
     9062.075200       0.106643
     9070.294800       0.108922
     9078.529300       0.111222
     9086.778700       0.113544
     9095.043200       0.115889
     9103.322700       0.118254
     9111.617300       0.120642
     9119.927000       0.123052
     9128.251900       0.125484
     9136.592100       0.127938
     9144.947400       0.130414
     9153.318100       0.132913
     9161.704100       0.135434
     9170.105500       0.137978
     9178.522300       0.140545
     9186.954500       0.143134
     9195.402300       0.145746
     9203.865600       0.148381
     9212.344500       0.151039
     9220.839100       0.153720
     9229.349300       0.156424
     9237.875300       0.159151
     9246.417000       0.161902
     9254.974500       0.164676
     9263.547900       0.167473
     9272.137200       0.170293
     9280.742500       0.173137
     9289.363700       0.176004
     9298.000900       0.178895
     9306.654300       0.181810
     9315.323700       0.184747
     9324.009300       0.187709
     9332.711200       0.190695
     9341.429200       0.193703
     9350.163600       0.196736
     9358.914400       0.199792
     9367.681500       0.202872
     9376.465100       0.205975
     9385.265100       0.209102
     9394.081700       0.212253
     9402.914900       0.215427
     9411.764700       0.218625
     9420.631200       0.221846
     9429.514400       0.225091
     9438.414300       0.228359
     9447.331100       0.231650
     9456.264800       0.234965
     9465.215300       0.238304
     9474.182900       0.241665
     9483.167400       0.245049
     9492.169000       0.248457
     9501.187600       0.251887
     9510.223500       0.255340
     9519.276500       0.258816
     9528.346800       0.262315
     9537.434400       0.265836
     9546.539400       0.269379
     9555.661700       0.272945
     9564.801500       0.276533
     9573.958800       0.280143
     9583.133700       0.283774
     9592.326100       0.287428
     9601.536200       0.291103
     9610.764100       0.294798
     9620.009600       0.298516
     9629.273000       0.302255
     9638.554200       0.306013
     9647.853400       0.309793
     9657.170400       0.313593
     9666.505600       0.317414
     9675.858700       0.321255
     9685.230000       0.325115
     9694.619500       0.328995
     9704.027200       0.332894
     9713.453100       0.336812
     9722.897400       0.340750
     9732.360100       0.344705
     9741.841200       0.348680
     9751.340800       0.352672
     9760.859000       0.356682
     9770.395700       0.360710
     9779.951100       0.364755
     9789.525200       0.368817
     9799.118100       0.372896
     9808.729800       0.376991
     9818.360300       0.381102
     9828.009800       0.385229
     9837.678300       0.389372
     9847.365800       0.393530
     9857.072400       0.397703
     9866.798200       0.401890
     9876.543200       0.406091
     9886.307500       0.410307
     9896.091000       0.414536
     9905.894000       0.418778
     9915.716400       0.423034
     9925.558300       0.427301
     9935.419800       0.431581
     9945.300800       0.435873
     9955.201600       0.440175
     9965.122100       0.444490
     9975.062300       0.448814
     9985.022500       0.453149
     9995.002500       0.457494
    10005.002500       0.461848
    10015.022500       0.466212
    10025.062700       0.470584
    10035.122900       0.474964
    10045.203400       0.479353
    10055.304200       0.483749
    10065.425300       0.488152
    10075.566800       0.492561
    10085.728700       0.496977
    10095.911200       0.501399
    10106.114200       0.505826
    10116.337900       0.510258
    10126.582300       0.514695
    10136.847400       0.519135
    10147.133400       0.523580
    10157.440300       0.528028
    10167.768200       0.532478
    10178.117000       0.536931
    10188.487000       0.541386
    10198.878100       0.545842
    10209.290500       0.550299
    10219.724100       0.554757
    10230.179000       0.559215
    10240.655400       0.563672
    10251.153300       0.568129
    10261.672700       0.572585
    10272.213700       0.577038
    10282.776300       0.581490
    10293.360800       0.585939
    10303.967000       0.590385
    10314.595200       0.594827
    10325.245200       0.599265
    10335.917300       0.603699
    10346.611500       0.608128
    10357.327800       0.612551
    10368.066400       0.616969
    10378.827200       0.621380
    10389.610400       0.625784
    10400.416000       0.630181
    10411.244100       0.634570
    10422.094800       0.638951
    10432.968200       0.643323
    10443.864200       0.647687
    10454.783100       0.652040
    10465.724800       0.656384
    10476.689400       0.660716
    10487.677000       0.665038
    10498.687700       0.669349
    10509.721500       0.673647
    10520.778500       0.677933
    10531.858900       0.682206
    10542.962600       0.686466
    10554.089700       0.690712
    10565.240400       0.694943
    10576.414600       0.699160
    10587.612500       0.703362
    10598.834100       0.707548
    10610.079600       0.711719
    10621.348900       0.715872
    10632.642200       0.720009
    10643.959600       0.724129
    10655.301000       0.728230
    10666.666700       0.732313
    10678.056600       0.736378
    10689.470900       0.740423
    10700.909600       0.744449
    10712.372800       0.748455
    10723.860600       0.752441
    10735.373100       0.756405
    10746.910300       0.760349
    10758.472300       0.764271
    10770.059200       0.768171
    10781.671200       0.772048
    10793.308100       0.775902
    10804.970300       0.779733
    10816.657700       0.783541
    10828.370300       0.787324
    10840.108400       0.791083
    10851.871900       0.794817
    10863.661100       0.798526
    10875.475800       0.802209
    10887.316300       0.805866
    10899.182600       0.809497
    10911.074700       0.813101
    10922.992900       0.816678
    10934.937100       0.820228
    10946.907500       0.823750
    10958.904100       0.827243
    10970.927000       0.830709
    10982.976400       0.834145
    10995.052200       0.837552
    11007.154700       0.840930
    11019.283700       0.844278
    11031.439600       0.847596
    11043.622300       0.850883
    11055.832000       0.854140
    11068.068600       0.857365
    11080.332400       0.860560
    11092.623400       0.863722
    11104.941700       0.866853
    11117.287400       0.869951
    11129.660500       0.873017
    11142.061300       0.876050
    11154.489700       0.879051
    11166.945800       0.882017
    11179.429800       0.884951
    11191.941800       0.887850
    11204.481800       0.890716
    11217.049900       0.893547
    11229.646300       0.896344
    11242.270900       0.899106
    11254.924000       0.901833
    11267.605600       0.904525
    11280.315800       0.907182
    11293.054800       0.909803
    11305.822500       0.912388
    11318.619100       0.914937
    11331.444800       0.917451
    11344.299500       0.919927
    11357.183400       0.922368
    11370.096600       0.924772
    11383.039300       0.927139
    11396.011400       0.929469
    11409.013100       0.931762
    11422.044500       0.934018
    11435.105800       0.936236
    11448.196900       0.938417
    11461.318100       0.940560
    11474.469300       0.942666
    11487.650800       0.944734
    11500.862600       0.946764
    11514.104800       0.948756
    11527.377500       0.950710
    11540.680900       0.952625
    11554.015000       0.954503
    11567.380000       0.956342
    11580.775900       0.958143
    11594.202900       0.959905
    11607.661100       0.961629
    11621.150500       0.963314
    11634.671300       0.964961
    11648.223600       0.966570
    11661.807600       0.968140
    11675.423200       0.969671
    11689.070700       0.971163
    11702.750100       0.972618
    11716.461600       0.974033
    11730.205300       0.975410
    11743.981200       0.976748
    11757.789500       0.978048
    11771.630400       0.979310
    11785.503800       0.980533
    11799.410000       0.981717
    11813.349100       0.982864
    11827.321100       0.983972
    11841.326200       0.985042
    11855.364600       0.986073
    11869.436200       0.987067
    11883.541300       0.988023
    11897.680000       0.988941
    11911.852300       0.989821
    11926.058400       0.990664
    11940.298500       0.991469
    11954.572600       0.992237
    11968.880900       0.992967
    11983.223500       0.993660
    11997.600500       0.994316
    12012.012000       0.994936
    12026.458200       0.995519
    12040.939200       0.996065
    12055.455100       0.996574
    12070.006000       0.997048
    12084.592100       0.997486
    12099.213600       0.997887
    12113.870400       0.998253
    12128.562800       0.998584
    12143.290800       0.998880
    12158.054700       0.999140
    12172.854500       0.999365
    12187.690400       0.999556
    12202.562500       0.999713
    12217.471000       0.999835
    12232.415900       0.999924
    12247.397400       0.999979
    12262.415700       1.000000
    12277.470800       0.999988
    12292.563000       0.999944
    12307.692300       0.999866
    12322.858900       0.999757
    12338.062900       0.999615
    12353.304500       0.999441
    12368.583800       0.999236
    12383.900900       0.999000
    12399.256000       0.998732
    12414.649300       0.998435
    12430.080800       0.998106
    12445.550700       0.997748
    12461.059200       0.997360
    12476.606400       0.996943
    12492.192400       0.996496
    12507.817400       0.996021
    12523.481500       0.995518
    12539.185000       0.994986
    12554.927800       0.994427
    12570.710200       0.993840
    12586.532400       0.993227
    12602.394500       0.992586
    12618.296500       0.991920
    12634.238800       0.991227
    12650.221400       0.990509
    12666.244500       0.989766
    12682.308200       0.988998
    12698.412700       0.988205
    12714.558200       0.987389
    12730.744700       0.986549
    12746.972600       0.985685
    12763.241900       0.984799
    12779.552700       0.983890
    12795.905300       0.982959
    12812.299800       0.982007
    12828.736400       0.981033
    12845.215200       0.980038
    12861.736300       0.979023
    12878.300100       0.977988
    12894.906500       0.976933
    12911.555800       0.975859
    12928.248200       0.974767
    12944.983800       0.973656
    12961.762800       0.972527
    12978.585300       0.971380
    12995.451600       0.970217
    13012.361700       0.969036
    13029.316000       0.967840
    13046.314400       0.966628
    13063.357300       0.965401
    13080.444700       0.964158
    13097.576900       0.962902
    13114.754100       0.961631
    13131.976400       0.960347
    13149.243900       0.959049
    13166.556900       0.957740
    13183.915600       0.956417
    13201.320100       0.955083
    13218.770700       0.953738
    13236.267400       0.952382
    13253.810500       0.951016
    13271.400100       0.949639
    13289.036500       0.948253
    13306.719900       0.946858
    13324.450400       0.945455
    13342.228200       0.944043
    13360.053400       0.942623
    13377.926400       0.941197
    13395.847300       0.939763
    13413.816200       0.938323
    13431.833400       0.936878
    13449.899100       0.935427
    13468.013500       0.933970
    13486.176700       0.932510
    13504.388900       0.931045
    13522.650400       0.929577
    13540.961400       0.928105
    13559.322000       0.926631
    13577.732500       0.925154
    13596.193100       0.923675
    13614.703900       0.922195
    13633.265200       0.920714
    13651.877100       0.919233
    13670.540000       0.917751
    13689.253900       0.916270
    13708.019200       0.914789
    13726.836000       0.913310
    13745.704500       0.911832
    13764.624900       0.910356
    13783.597500       0.908882
    13802.622500       0.907412
    13821.700100       0.905944
    13840.830400       0.904481
    13860.013900       0.903021
    13879.250500       0.901566
    13898.540700       0.900116
    13917.884500       0.898671
    13937.282200       0.897232
    13956.734100       0.895799
    13976.240400       0.894372
    13995.801300       0.892952
    14015.417000       0.891540
    14035.087700       0.890135
    14054.813800       0.888738
    14074.595400       0.887349
    14094.432700       0.885970
    14114.326000       0.884599
    14134.275600       0.883238
    14154.281700       0.881886
    14174.344400       0.880545
    14194.464200       0.879214
    14214.641100       0.877894
    14234.875400       0.876585
    14255.167500       0.875287
    14275.517500       0.874002
    14295.925700       0.872728
    14316.392300       0.871467
    14336.917600       0.870219
    14357.501800       0.868984
    14378.145200       0.867762
    14398.848100       0.866554
    14419.610700       0.865359
    14440.433200       0.864179
    14461.316000       0.863013
    14482.259200       0.861862
    14503.263200       0.860726
    14524.328200       0.859605
    14545.454500       0.858500
    14566.642400       0.857410
    14587.892000       0.856336
    14609.203800       0.855279
    14630.577900       0.854238
    14652.014700       0.853213
    14673.514300       0.852206
    14695.077100       0.851215
    14716.703500       0.850241
    14738.393500       0.849285
    14760.147600       0.848347
    14781.966000       0.847426
    14803.849000       0.846523
    14825.796900       0.845638
    14847.809900       0.844771
    14869.888500       0.843923
    14892.032800       0.843093
    14914.243100       0.842281
    14936.519800       0.841489
    14958.863100       0.840715
    14981.273400       0.839960
    15003.750900       0.839224
    15026.296000       0.838507
    15048.909000       0.837810
    15071.590100       0.837131
    15094.339600       0.836472
    15117.158000       0.835832
    15140.045400       0.835212
    15163.002300       0.834611
    15186.028900       0.834029
    15209.125500       0.833467
    15232.292500       0.832924
    15255.530100       0.832401
    15278.838800       0.831897
    15302.218800       0.831413
    15325.670500       0.830948
    15349.194200       0.830502
    15372.790200       0.830076
    15396.458800       0.829669
    15420.200500       0.829281
    15444.015400       0.828912
    15467.904100       0.828563
    15491.866800       0.828232
    15515.903800       0.827920
    15540.015500       0.827627
    15564.202300       0.827352
    15588.464500       0.827096
    15612.802500       0.826858
    15637.216600       0.826639
    15661.707100       0.826437
    15686.274500       0.826254
    15710.919100       0.826088
    15735.641200       0.825939
    15760.441300       0.825808
    15785.319700       0.825694
    15810.276700       0.825597
    15835.312700       0.825516
    15860.428200       0.825452
    15885.623500       0.825405
    15910.899000       0.825373
    15936.255000       0.825356
    15961.691900       0.825356
    15987.210200       0.825370
    16012.810200       0.825399
    16038.492400       0.825443
    16064.257000       0.825501
    16090.104600       0.825573
    16116.035500       0.825658
    16142.050000       0.825757
    16168.148700       0.825868
    16194.332000       0.825992
    16220.600200       0.826128
    16246.953700       0.826276
    16273.393000       0.826436
    16299.918500       0.826606
    16326.530600       0.826787
    16353.229800       0.826979
    16380.016400       0.827180
    16406.890900       0.827390
    16433.853700       0.827609
    16460.905300       0.827837
    16488.046200       0.828073
    16515.276600       0.828316
    16542.597200       0.828566
    16570.008300       0.828823
    16597.510400       0.829086
    16625.103900       0.829354
    16652.789300       0.829628
    16680.567100       0.829906
    16708.437800       0.830188
    16736.401700       0.830474
    16764.459300       0.830762
    16792.611300       0.831053
    16820.857900       0.831345
    16849.199700       0.831639
    16877.637100       0.831934
    16906.170800       0.832228
    16934.801000       0.832522
    16963.528400       0.832815
    16992.353400       0.833106
    17021.276600       0.833395
    17050.298400       0.833680
    17079.419300       0.833963
    17108.639900       0.834240
    17137.960600       0.834513
    17167.382000       0.834781
    17196.904600       0.835042
    17226.528900       0.835296
    17256.255400       0.835542
    17286.084700       0.835781
    17316.017300       0.836010
    17346.053800       0.836230
    17376.194600       0.836439
    17406.440400       0.836638
    17436.791600       0.836824
    17467.248900       0.836999
    17497.812800       0.837159
    17528.483800       0.837306
    17559.262500       0.837439
    17590.149500       0.837555
    17621.145400       0.837656
    17652.250700       0.837740
    17683.466000       0.837806
    17714.791900       0.837854
    17746.228900       0.837882
    17777.777800       0.837891
    17809.439000       0.837878
    17841.213200       0.837845
    17873.101000       0.837789
    17905.103000       0.837709
    17937.219700       0.837607
    17969.451900       0.837479
    18001.800200       0.837326
    18034.265100       0.837146
    18066.847300       0.836940
    18099.547500       0.836706
    18132.366300       0.836443
    18165.304300       0.836151
    18198.362100       0.835828
    18231.540600       0.835475
    18264.840200       0.835089
    18298.261700       0.834671
    18331.805700       0.834220
    18365.472900       0.833734
    18399.264000       0.833213
    18433.179700       0.832656
    18467.220700       0.832062
    18501.387600       0.831431
    18535.681200       0.830762
    18570.102100       0.830053
    18604.651200       0.829305
    18639.329000       0.828515
    18674.136300       0.827685
    18709.073900       0.826812
    18744.142500       0.825895
    18779.342700       0.824935
    18814.675400       0.823930
    18850.141400       0.822880
    18885.741300       0.821783
    18921.475900       0.820639
    18957.346000       0.819448
    18993.352300       0.818207
    19029.495700       0.816918
    19065.776900       0.815578
    19102.196800       0.814187
    19138.756000       0.812745
    19175.455400       0.811250
    19212.295900       0.809703
    19249.278200       0.808101
    19286.403100       0.806445
    19323.671500       0.804733
    19361.084200       0.802966
    19398.642100       0.801142
    19436.346000       0.799260
    19474.196700       0.797320
    19512.195100       0.795322
    19550.342100       0.793264
    19588.638600       0.791146
    19627.085400       0.788968
    19665.683400       0.786728
    19704.433500       0.784426
    19743.336600       0.782062
    19782.393700       0.779635
    19821.605600       0.777144
    19860.973200       0.774588
    19900.497500       0.771968
    19940.179500       0.769282
    19980.020000       0.766531
    20020.020000       0.763713
    20060.180500       0.760828
    20100.502500       0.757876
    20140.986900       0.754855
    20181.634700       0.751767
    20222.446900       0.748609
    20263.424500       0.745383
    20304.568500       0.742087
    20345.880000       0.738721
    20387.359800       0.735284
    20429.009200       0.731777
    20470.829100       0.728199
    20512.820500       0.724549
    20554.984600       0.720828
    20597.322300       0.717035
    20639.834900       0.713170
    20682.523300       0.709233
    20725.388600       0.705222
    20768.432000       0.701140
    20811.654500       0.696984
    20855.057400       0.692755
    20898.641600       0.688453
    20942.408400       0.684078
    20986.358900       0.679630
    21030.494200       0.675108
    21074.815600       0.670513
    21119.324200       0.665845
    21164.021200       0.661104
    21208.907700       0.656289
    21253.985100       0.651401
    21299.254500       0.646440
    21344.717200       0.641407
    21390.374300       0.636301
    21436.227200       0.631122
    21482.277100       0.625871
    21528.525300       0.620549
    21574.973000       0.615155
    21621.621600       0.609690
    21668.472400       0.604154
    21715.526600       0.598548
    21762.785600       0.592871
    21810.250800       0.587125
    21857.923500       0.581311
    21905.805000       0.575428
    21953.896800       0.569477
    22002.200200       0.563459
    22050.716600       0.557375
    22099.447500       0.551224
    22148.394200       0.545009
    22197.558300       0.538730
    22246.941000       0.532387
    22296.544000       0.525981
    22346.368700       0.519514
    22396.416600       0.512987
    22446.689100       0.506399
    22497.187900       0.499753
    22547.914300       0.493049
    22598.870100       0.486289
    22650.056600       0.479474
    22701.475600       0.472604
    22753.128600       0.465682
    22805.017100       0.458708
    22857.142900       0.451684
    22909.507400       0.444612
    22962.112500       0.437492
    23014.959700       0.430326
    23068.050700       0.423117
    23121.387300       0.415864
    23174.971000       0.408571
    23228.803700       0.401239
    23282.887100       0.393869
    23337.222900       0.386463
    23391.812900       0.379024
    23446.658900       0.371553
    23501.762600       0.364053
    23557.126000       0.356524
    23612.750900       0.348970
    23668.639100       0.341393
    23724.792400       0.333794
    23781.212800       0.326176
    23837.902300       0.318542
    23894.862600       0.310893
    23952.095800       0.303233
    24009.603800       0.295563
    24067.388700       0.287887
    24125.452400       0.280207
    24183.796900       0.272526
    24242.424200       0.264846
    24301.336600       0.257171
    24360.535900       0.249503
    24420.024400       0.241846
    24479.804200       0.234202
    24539.877300       0.226574
    24600.246000       0.218967
    24660.912500       0.211382
    24721.878900       0.203824
    24783.147500       0.196295
    24844.720500       0.188800
    24906.600200       0.181341
    24968.789000       0.173923
    25031.289100       0.166550
    25094.102900       0.159224
    25157.232700       0.151951
    25220.681000       0.144733
    25284.450100       0.137575
    25348.542500       0.130481
    25412.960600       0.123455
    25477.707000       0.116502
